Measure Group: FFT
Measurement: FFT ch2
Ch1 Eng. Units: Off
Ch2 Eng. Units: Off
Ch1 EU Label: m/s2
Ch2 EU Label: m/s2
Ch1 User Label: EU
Ch2 User Label: EU
Ch1 EU/Volt:  1 EU/V
Ch2 EU/Volt:  1 EU/V
Base Freq.:  102.4 kHz 
Start Freq.: 0 Hz
Span: 102.4 kHz
FFT Lines:  800 
Window: Uniform
Force Length: 100%
Expo TC: 50%
Averaging: On
Averaging Mode: RMS
Averaging Type: Exponential
# Avgs:   10
Time Record Incr.: 100.00%
Overload Reject: On
d/dx window (%):     0.0005
dBm Ref. Imped.:         50 
Auto Offset: On
Ch1 Input Mode: A
Ch1 Grounding: Ground
Ch1 Coupling: AC
Ch2 Input Mode: A
Ch2 Grounding: Float
Ch2 Coupling: AC
Ch1 AA Filter: On
Ch2 AA Filter: On
Ch1 A-Wt Fitler: Off
Ch2 A-Wt Filter: Off
Ch1 AutoRange: Normal
Ch2 AutoRange: Normal
Playback Start: 0
Playback Length:  494 kPts/ch
Playback Mode: Circular
Playback Speed: Normal
Ch1 Input Range:  -50 dBV
Ch2 Input Range:  -24 dBV
Trig'd Source Mode: Continuous
Trigger Mode: Free Run
Trigger Source: Ch 1
Trigger Level: 0%
Trigger Slope: Rising
Delay A: 0 bins
Delay B: 0 bins
Source: 1
Source Type: 0
Sine Freq 1: 100 kHz
Sine Freq 2: 51.2 kHz
Sine Amp 1: 1000.0 mV
Src Offset: 4000.0 mV
Sine Amp 2:   0.0 mV
Noise Amp: 5000.0 mV
Noise Burst:   0 %
Noise Type: Whte
Chirp Amp: 1000.0 mV
Chirp Burst:   0 %
Chirp Source: Display B
Arb Src Amp: 100.01 %
Arb Src Buf: Arb. Buffer
Arb Src Rate: 262.1 kHz
Arb Src Start: 0
Arb Src Len:    4 kPts
Input Source: Analog
****DATA BEGINS****
            x  	         Real    	         Imag    	      Log Mag
              0	      0.002594667	    9.784926e-006	        -51.71831
            128	      0.002053885	      0.001802539	        -51.26819
            256	     0.0009883011	      0.001533911	        -54.77605
            384	     0.0004969645	     0.0008060718	         -60.4734
            512	     0.0002259361	     0.0005549495	        -64.44886
            640	     0.0003019361	     0.0004840268	        -64.87519
            768	     0.0001947172	     0.0003588421	        -67.78111
            896	     0.0001255035	     0.0002981418	        -69.80304
           1024	     0.0002261226	     0.0003156653	        -68.21667
           1152	     0.0001282082	     0.0002703598	        -70.48022
           1280	     0.0001417339	     0.0002205003	        -71.62988
           1408	     0.0001282483	     0.0002025339	        -72.40577
           1536	    8.854193e-005	     0.0001761916	        -74.10239
           1664	    9.463753e-005	     0.0001331138	        -75.73887
           1792	    9.477853e-005	     0.0002162023	        -72.53939
           1920	    8.608079e-005	     0.0001339792	        -75.95845
           2048	     0.0001734648	     0.0004316075	        -66.64793
           2176	    8.319382e-005	     0.0001012452	        -77.65184
           2304	    6.415538e-005	     0.0001415068	        -76.17262
           2432	    9.569525e-005	     0.0001466282	        -75.13464
           2560	     0.0001197785	     0.0001546266	        -74.17297
           2688	    5.096084e-005	     0.0001122902	        -78.17982
           2816	    8.913702e-005	      0.000130355	        -76.03141
           2944	    9.491159e-005	     0.0001341647	        -75.68501
           3072	     0.0001882879	     0.0001477484	        -72.41982
           3200	    5.319757e-005	     9.46728e-005	        -79.28378
           3328	     5.02313e-005	     0.0001037112	        -78.76829
           3456	    5.618939e-005	     8.26669e-005	        -80.00388
           3584	     5.12195e-005	    8.640624e-005	        -79.96131
           3712	    7.065923e-005	    9.168767e-005	        -78.72916
           3840	    4.858194e-005	    9.379726e-005	        -79.52409
           3968	    5.497998e-005	    7.040766e-005	        -80.97995
           4096	    4.580534e-005	    6.227016e-005	        -82.23611
           4224	    4.650041e-005	    7.756554e-005	        -80.87315
           4352	    5.965934e-005	    8.507336e-005	        -79.66708
           4480	    4.857203e-005	    7.257018e-005	        -81.17722
           4608	    5.541481e-005	    7.284154e-005	        -80.76927
           4736	    3.802745e-005	    5.692337e-005	        -83.29165
           4864	    3.746213e-005	    6.194107e-005	        -82.80659
           4992	    4.132106e-005	     5.30075e-005	        -83.45129
           5120	    4.128173e-005	    6.307459e-005	        -82.45454
           5248	    3.921102e-005	    5.659797e-005	        -83.24146
           5376	    4.673122e-005	    6.040429e-005	        -82.34146
           5504	    4.395495e-005	    5.221488e-005	         -83.3176
           5632	    2.983933e-005	    6.734658e-005	        -82.65524
           5760	    4.300732e-005	    6.189524e-005	        -82.45602
           5888	    2.351821e-005	    5.608614e-005	        -84.31944
           6016	    3.896151e-005	    4.521622e-005	        -84.48244
           6144	    4.014619e-005	    5.230696e-005	        -83.61737
           6272	    4.402997e-005	    3.911451e-005	        -84.59848
           6400	    4.692078e-005	    5.068384e-005	        -83.21444
           6528	    3.922011e-005	    4.469859e-005	        -84.51466
           6656	    3.513673e-005	    5.086343e-005	        -84.17746
           6784	    3.070446e-005	     5.37569e-005	         -84.1651
           6912	    3.516702e-005	    6.688317e-005	        -82.43358
           7040	    4.433612e-005	     5.21685e-005	        -83.29082
           7168	    4.237367e-005	    4.075209e-005	        -84.61394
           7296	     4.49657e-005	     5.98709e-005	        -82.51313
           7424	    5.006958e-005	    5.536166e-005	        -82.53999
           7552	    6.554637e-005	    7.887776e-005	        -79.78065
           7680	    7.807773e-005	     0.0001192683	        -76.92054
           7808	     0.0001220972	      0.000137156	        -74.72118
           7936	    9.899499e-005	    9.009371e-005	        -77.46738
           8064	     0.0001504155	     0.0001779331	         -72.6532
           8192	     0.0001136431	      0.000128315	        -75.31956
           8320	    9.393546e-005	     0.0001197058	        -76.35386
           8448	    8.246587e-005	    9.186359e-005	        -78.17028
           8576	    7.733849e-005	    8.653128e-005	        -78.70668
           8704	    7.116063e-005	    8.969362e-005	        -78.82438
           8832	    8.412671e-005	    6.622028e-005	        -79.40723
           8960	    7.228944e-005	    8.956271e-005	        -78.77875
           9088	    7.801647e-005	    7.614237e-005	        -79.25029
           9216	    7.524564e-005	     0.0001090037	        -77.55878
           9344	    9.510606e-005	     0.0001118547	        -76.66418
           9472	     0.0001005485	     0.0001297194	        -75.69649
           9600	     0.0001378932	     0.0001291037	        -74.47547
           9728	     0.0001859045	     0.0001417221	        -72.62444
           9856	     0.0001721042	     0.0001424895	        -73.01698
           9984	    8.509248e-005	     0.0001382747	        -75.79044
          10112	    9.663555e-005	    9.427082e-005	        -77.39323
          10240	    7.177823e-005	    7.334346e-005	        -79.77515
          10368	    6.371181e-005	     9.70917e-005	        -78.70117
          10496	    5.227688e-005	    4.933744e-005	        -82.86757
          10624	      3.6627e-005	    5.149005e-005	        -83.98727
          10752	    4.004622e-005	    5.251295e-005	        -83.60383
          10880	     5.96253e-005	    4.672289e-005	        -82.41224
          11008	    4.959299e-005	    4.351357e-005	        -83.61222
          11136	    3.885282e-005	    4.512546e-005	         -84.5028
          11264	    4.011619e-005	    3.979119e-005	        -84.95849
          11392	    3.897214e-005	    3.249257e-005	        -85.89291
          11520	      3.3491e-005	    4.761881e-005	        -84.69903
          11648	    2.715908e-005	    4.337446e-005	        -85.81871
          11776	    5.134581e-005	    3.721899e-005	        -83.95596
          11904	    4.067622e-005	    3.716166e-005	        -85.17764
          12032	    4.290636e-005	     4.86149e-005	          -83.763
          12160	    3.839907e-005	    4.368257e-005	        -84.70742
          12288	    4.550387e-005	    4.380707e-005	        -83.99064
          12416	    3.410683e-005	    4.124284e-005	        -85.42989
          12544	    3.615339e-005	    4.766593e-005	        -84.46225
          12672	    3.712751e-005	    3.699552e-005	        -85.61122
          12800	    4.374352e-005	    4.262919e-005	        -84.28204
          12928	    3.281467e-005	    4.685804e-005	        -84.85123
          13056	    3.714088e-005	    2.986765e-005	        -86.43683
          13184	    4.010068e-005	    4.239763e-005	        -84.67803
          13312	    2.896334e-005	    3.866024e-005	        -86.31995
          13440	    4.396589e-005	    3.366339e-005	        -85.13396
          13568	    3.983774e-005	    6.393155e-005	        -82.46088
          13696	     4.03999e-005	    3.546457e-005	        -85.39119
          13824	    3.475307e-005	    3.183747e-005	        -86.53373
          13952	    3.331218e-005	    3.036914e-005	        -86.92079
          14080	     3.81646e-005	    3.223123e-005	        -86.02862
          14208	    3.786798e-005	     3.06706e-005	        -86.24397
          14336	    3.928585e-005	    4.288568e-005	        -84.70754
          14464	    2.514173e-005	    5.389271e-005	        -84.51423
          14592	    4.176038e-005	    3.621828e-005	         -85.1489
          14720	    3.338847e-005	    4.300116e-005	        -85.28138
          14848	    3.405145e-005	    4.605269e-005	         -84.8408
          14976	     3.77429e-005	    4.059176e-005	        -85.12548
          15104	    2.894523e-005	    4.236785e-005	        -85.79572
          15232	    4.109921e-005	    3.553587e-005	        -85.29892
          15360	    5.933009e-005	    5.681379e-005	        -81.70834
          15488	    4.023687e-005	    3.683012e-005	        -85.26445
          15616	    5.000774e-005	    4.555199e-005	        -83.39537
          15744	    3.662031e-005	    4.671698e-005	        -84.53023
          15872	    3.484304e-005	    4.106156e-005	        -85.37589
          16000	    3.363388e-005	    4.130884e-005	         -85.4704
          16128	    4.287475e-005	    4.724328e-005	        -83.90387
          16256	     5.33068e-005	     4.22765e-005	        -83.34521
          16384	    5.086745e-005	    6.119243e-005	        -81.98458
          16512	    7.174203e-005	     0.0001002205	        -78.18411
          16640	    6.924192e-005	    6.830621e-005	          -80.241
          16768	    9.698311e-005	     0.0001186016	        -76.29449
          16896	     0.0001539343	     0.0001587733	        -73.10649
          17024	     0.0003136181	     0.0003077002	        -67.14362
          17152	     0.0007064599	     0.0007698226	        -59.61892
          17280	     0.0001521036	     0.0001902644	        -72.26682
          17408	     0.0001329295	     0.0001386573	         -74.3302
          17536	    7.708729e-005	    9.112987e-005	        -78.46273
          17664	     5.20438e-005	     7.97649e-005	        -80.42345
          17792	    6.170818e-005	    7.099051e-005	        -80.53177
          17920	    4.515461e-005	    4.453981e-005	        -83.95479
          18048	    3.413378e-005	     5.32052e-005	        -83.98384
          18176	    4.853283e-005	    6.488682e-005	        -81.82716
          18304	    4.862043e-005	    4.980463e-005	        -83.14756
          18432	     3.09941e-005	    4.392187e-005	        -85.39137
          18560	     3.62297e-005	    3.944256e-005	        -85.42374
          18688	    6.439677e-005	    5.897386e-005	        -81.17768
          18816	    6.323714e-005	    4.258387e-005	        -82.35651
          18944	    8.926581e-005	    7.864541e-005	        -78.49136
          19072	    9.567604e-005	      0.000113392	        -76.57347
          19200	     0.0001862599	     0.0001824783	        -71.67548
          19328	    9.511079e-005	     0.0001141492	        -76.56078
          19456	    9.140142e-005	    8.149646e-005	        -78.24028
          19584	      0.000494277	     0.0005387668	        -62.71988
          19712	    6.224023e-005	    3.909823e-005	        -82.67403
          19840	    5.413886e-005	    3.489666e-005	        -83.82079
          19968	    4.171529e-005	    4.813414e-005	        -83.91788
          20096	    4.442507e-005	    3.444174e-005	        -85.00338
          20224	    3.065093e-005	    5.387502e-005	        -84.15443
          20352	    3.555391e-005	    4.462148e-005	        -84.87428
          20480	    3.591449e-005	    3.730715e-005	        -85.71594
          20608	    4.890961e-005	      4.5119e-005	        -83.53805
          20736	    4.416434e-005	    5.543061e-005	        -82.99033
          20864	    4.222415e-005	    2.999573e-005	         -85.7144
          20992	    4.616282e-005	    4.297797e-005	        -84.00323
          21120	     5.26916e-005	    4.309462e-005	        -83.34086
          21248	    3.001315e-005	    3.153703e-005	        -87.22305
          21376	    3.801689e-005	    4.803622e-005	        -84.25649
          21504	    3.701491e-005	    4.359668e-005	        -84.85349
          21632	    4.294633e-005	    3.263307e-005	        -85.36211
          21760	    3.933895e-005	    3.829575e-005	         -85.2084
          21888	    4.809733e-005	    4.167515e-005	        -83.92526
          22016	    3.205079e-005	     5.21637e-005	        -84.26165
          22144	     3.17638e-005	    3.672649e-005	        -86.27498
          22272	    3.095497e-005	    3.138164e-005	        -87.11523
          22400	    4.261249e-005	    4.943482e-005	        -83.70628
          22528	     3.14857e-005	    4.637976e-005	        -85.02734
          22656	    4.647514e-005	    3.825251e-005	        -84.40909
          22784	    3.235356e-005	    4.070903e-005	        -85.67997
          22912	    5.701739e-005	    3.822446e-005	        -83.26786
          23040	    3.395416e-005	    3.383057e-005	        -86.38765
          23168	    3.667661e-005	    4.227309e-005	        -85.04152
          23296	    4.048135e-005	    5.190069e-005	        -83.63269
          23424	    3.882172e-005	    4.253054e-005	        -84.79389
          23552	    2.959107e-005	    3.700201e-005	        -86.48826
          23680	    5.520002e-005	    4.075089e-005	        -83.27193
          23808	    3.876754e-005	    4.411583e-005	         -84.6229
          23936	    5.619096e-005	    4.272569e-005	        -83.02517
          24064	    3.254752e-005	    3.592679e-005	        -86.28918
          24192	    3.394878e-005	    5.434031e-005	        -83.86646
          24320	    3.919945e-005	    4.060933e-005	        -84.96793
          24448	    4.192787e-005	     3.31816e-005	        -85.43791
          24576	    3.395618e-005	    3.769523e-005	          -85.894
          24704	    5.046676e-005	     3.63119e-005	          -84.128
          24832	    4.007559e-005	    4.140068e-005	        -84.78853
          24960	    3.491196e-005	    3.732274e-005	        -85.83055
          25088	    4.700997e-005	    3.473422e-005	        -84.66431
          25216	    4.365604e-005	    5.076284e-005	        -83.48459
          25344	    4.458399e-005	    4.435396e-005	        -84.02853
          25472	    5.099612e-005	    4.255984e-005	         -83.5537
          25600	    3.323988e-005	    4.468151e-005	        -85.08453
          25728	    3.900332e-005	     4.54046e-005	        -84.45773
          25856	     3.66772e-005	    3.580241e-005	        -85.80535
          25984	    3.998217e-005	    3.124485e-005	        -85.89254
          26112	    4.125993e-005	    3.650194e-005	        -85.17873
          26240	    4.614174e-005	    4.096817e-005	        -84.19366
          26368	    6.459845e-005	    4.588126e-005	        -82.02175
          26496	    5.448592e-005	    4.392609e-005	        -83.09962
          26624	    4.323586e-005	    4.465076e-005	        -84.13072
          26752	    3.730428e-005	    3.642237e-005	        -85.65719
          26880	    3.569223e-005	    4.432758e-005	        -84.89606
          27008	    2.793447e-005	    3.402673e-005	        -87.12612
          27136	    5.190035e-005	     4.75056e-005	        -83.05357
          27264	    3.911828e-005	    4.562153e-005	        -84.42305
          27392	    4.478983e-005	    3.905505e-005	         -84.5205
          27520	    4.387537e-005	     4.07225e-005	        -84.45708
          27648	    5.058983e-005	    4.822935e-005	          -83.111
          27776	    6.884966e-005	    9.770943e-005	        -78.45046
          27904	    8.943246e-005	    9.217269e-005	        -77.82675
          28032	    5.566722e-005	    5.366165e-005	        -82.23414
          28160	     5.41827e-005	    5.276656e-005	        -82.42598
          28288	    3.622864e-005	    3.700942e-005	        -85.71507
          28416	     5.36151e-005	     4.74658e-005	        -82.90087
          28544	    3.671065e-005	    5.335415e-005	        -83.77337
          28672	    3.438153e-005	    4.760686e-005	         -84.6237
          28800	    4.207127e-005	    4.942682e-005	        -83.75408
          28928	    3.543896e-005	    4.236833e-005	        -85.15559
          29056	     3.79595e-005	    4.366088e-005	        -84.75319
          29184	    5.414038e-005	    3.279954e-005	        -83.97182
          29312	    4.536773e-005	    3.113515e-005	        -85.18897
          29440	    3.416907e-005	     4.42028e-005	        -85.05649
          29568	    4.578629e-005	    5.823513e-005	        -82.60609
          29696	     4.14169e-005	    4.059112e-005	        -84.73273
          29824	    4.868614e-005	    5.263862e-005	        -82.88938
          29952	    5.383358e-005	    4.382934e-005	        -83.17037
          30080	    3.640366e-005	    5.119604e-005	        -84.03814
          30208	    4.473581e-005	    5.453035e-005	         -83.0322
          30336	    4.274514e-005	    5.322136e-005	        -83.31646
          30464	    5.638646e-005	    4.876848e-005	        -82.55097
          30592	    5.123397e-005	    4.847236e-005	        -83.03252
          30720	    5.856019e-005	    3.888875e-005	        -83.06129
          30848	      4.6213e-005	    5.931055e-005	        -82.47691
          30976	    4.049188e-005	    4.869453e-005	        -83.96774
          31104	    4.381948e-005	    5.874715e-005	        -82.69914
          31232	    4.772101e-005	    4.049134e-005	        -84.07064
          31360	    4.322952e-005	    3.905581e-005	         -84.6927
          31488	    4.410654e-005	    5.947434e-005	        -82.61015
          31616	    4.315746e-005	    5.354962e-005	        -83.25127
          31744	    4.830819e-005	    5.777519e-005	        -82.46291
          31872	    4.665692e-005	    4.610374e-005	        -83.66287
          32000	    4.955547e-005	     4.49316e-005	        -83.49246
          32128	    4.757227e-005	    7.786576e-005	        -80.79553
          32256	    4.305405e-005	     4.36846e-005	        -84.24582
          32384	    5.270506e-005	    5.086903e-005	        -82.70391
          32512	     4.28218e-005	    3.292607e-005	         -85.3494
          32640	    3.711499e-005	    5.782162e-005	        -83.25979
          32768	    4.388658e-005	    5.034292e-005	        -83.50623
          32896	    4.336533e-005	    4.298446e-005	        -84.28499
          33024	    4.398703e-005	    4.882162e-005	        -83.64676
          33152	    4.998846e-005	    5.183414e-005	        -82.85199
          33280	    4.587384e-005	    3.749394e-005	        -84.54668
          33408	    4.228557e-005	     5.39957e-005	        -83.27569
          33536	    4.605449e-005	    5.619178e-005	        -82.77486
          33664	    6.825756e-005	    5.352397e-005	        -81.23557
          33792	    6.065141e-005	    7.527843e-005	        -80.29401
          33920	     9.12987e-005	    7.851383e-005	        -78.38636
          34048	     0.0001416866	     0.0001434706	        -73.90845
          34176	     0.0003973949	      0.000400381	        -64.97262
          34304	      0.000302581	     0.0003052997	        -67.33385
          34432	      0.000147318	     0.0001231254	        -74.33416
          34560	    8.730812e-005	    8.742071e-005	        -78.16301
          34688	    9.957889e-005	    9.432701e-005	        -77.25529
          34816	    6.042213e-005	    7.238604e-005	         -80.5107
          34944	    4.688671e-005	    5.055291e-005	        -83.22945
          35072	    6.180366e-005	     6.58526e-005	        -80.88509
          35200	    4.911781e-005	    4.782797e-005	        -83.27895
          35328	    4.361777e-005	    3.963522e-005	        -84.59238
          35456	      5.0739e-005	    6.125071e-005	        -81.98864
          35584	    4.460089e-005	    6.933536e-005	        -81.67706
          35712	    5.877232e-005	     5.60381e-005	        -81.80821
          35840	    4.865998e-005	    4.830581e-005	        -83.27787
          35968	    6.290938e-005	    4.946627e-005	        -81.93515
          36096	    4.409991e-005	    6.533221e-005	        -82.06692
          36224	    4.516689e-005	    4.180503e-005	        -84.21623
          36352	    6.030255e-005	    5.510517e-005	        -81.75681
          36480	    6.289309e-005	    4.120617e-005	        -82.47684
          36608	    5.561841e-005	      5.8046e-005	        -81.89583
          36736	     5.05458e-005	    4.892471e-005	        -83.05526
          36864	    4.274819e-005	    4.508018e-005	        -84.13454
          36992	     6.00155e-005	    5.379577e-005	        -81.87364
          37120	    3.887303e-005	    6.694417e-005	        -82.22382
          37248	     4.42311e-005	    6.088337e-005	         -82.4694
          37376	     5.30615e-005	    5.784593e-005	        -82.10301
          37504	    5.303335e-005	    3.977682e-005	        -83.57068
          37632	    4.016224e-005	    6.724442e-005	        -82.12199
          37760	    4.481437e-005	    4.578302e-005	        -83.86749
          37888	    5.984765e-005	    5.126768e-005	          -82.069
          38016	    6.126567e-005	    4.964929e-005	        -82.06312
          38144	    5.778118e-005	    6.164946e-005	        -81.46343
          38272	    7.123472e-005	    5.896099e-005	        -80.67994
          38400	     0.0001358124	      0.000128969	        -74.54964
          38528	    7.069235e-005	    8.784199e-005	        -78.95731
          38656	    5.301276e-005	    5.388283e-005	        -82.43082
          38784	       3.921e-005	    4.107381e-005	         -84.9154
          38912	    5.089889e-005	    4.019808e-005	         -83.7607
          39040	    5.074175e-005	    4.408557e-005	        -83.45029
          39168	     0.0001777436	     0.0001707568	        -72.16449
          39296	     5.21778e-005	     5.57539e-005	        -82.34255
          39424	    3.741882e-005	    5.079831e-005	        -84.00047
          39552	    3.915453e-005	    2.772445e-005	        -86.37947
          39680	    4.430295e-005	    3.832561e-005	        -84.64503
          39808	    4.177772e-005	    4.723368e-005	         -84.0051
          39936	    4.734191e-005	    4.668098e-005	        -83.54541
          40064	    4.498042e-005	    2.891307e-005	        -85.43755
          40192	    3.165021e-005	      3.8962e-005	        -85.98638
          40320	    4.285165e-005	    5.225247e-005	        -83.40408
          40448	    3.982464e-005	    5.546749e-005	        -83.31367
          40576	    3.774671e-005	    4.148383e-005	         -85.0228
          40704	    4.411015e-005	    3.985816e-005	        -84.51687
          40832	    4.711954e-005	    3.762714e-005	         -84.3937
          40960	    3.653343e-005	    2.611996e-005	        -86.95306
          41088	    4.342225e-005	    4.299774e-005	        -84.27791
          41216	    4.071141e-005	    3.152035e-005	        -85.76598
          41344	    4.610258e-005	    3.406048e-005	         -84.8339
          41472	    5.467141e-005	    3.148563e-005	        -84.00083
          41600	    3.519429e-005	    5.281479e-005	        -83.94906
          41728	     4.39238e-005	    3.432527e-005	        -85.07585
          41856	    4.200295e-005	    4.302877e-005	        -84.41805
          41984	    3.147171e-005	    2.779713e-005	        -87.53711
          42112	    4.245362e-005	    3.217375e-005	         -85.4707
          42240	    4.147677e-005	    2.608977e-005	        -86.19608
          42368	    3.518803e-005	    2.745247e-005	        -87.00746
          42496	    4.265201e-005	    3.012016e-005	        -85.64407
          42624	     3.06985e-005	    2.886924e-005	        -87.50598
          42752	    4.138791e-005	    3.532068e-005	        -85.28634
          42880	    3.726189e-005	    3.031732e-005	        -86.36842
          43008	    3.081081e-005	    3.351587e-005	         -86.8348
          43136	    3.676214e-005	    3.500507e-005	        -85.88918
          43264	    2.584317e-005	    2.938042e-005	        -88.15002
          43392	    4.274208e-005	    2.238551e-005	        -86.33018
          43520	    3.221968e-005	    3.511966e-005	        -86.43687
          43648	    2.657931e-005	    3.688017e-005	        -86.84742
          43776	    2.424591e-005	    3.576975e-005	        -87.28777
          43904	    4.470232e-005	    2.609197e-005	        -85.72013
          44032	    4.117797e-005	    2.836137e-005	        -86.02061
          44160	    3.822115e-005	    2.929919e-005	        -86.34644
          44288	    3.732187e-005	    2.894284e-005	        -86.51576
          44416	    3.850005e-005	    1.795512e-005	         -87.4361
          44544	    2.788618e-005	    3.423612e-005	        -87.10021
          44672	    3.174766e-005	    3.406814e-005	         -86.6383
          44800	     3.02243e-005	    3.186179e-005	        -87.14739
          44928	    2.767177e-005	    2.496085e-005	        -88.57369
          45056	     2.48193e-005	    2.069307e-005	        -89.81216
          45184	     2.31228e-005	    2.347475e-005	        -89.64279
          45312	    2.432682e-005	    4.028945e-005	         -86.5462
          45440	    2.334343e-005	    2.582144e-005	        -89.16618
          45568	    2.583289e-005	    2.304032e-005	        -89.21473
          45696	    2.612629e-005	    2.793275e-005	        -88.34808
          45824	    2.443292e-005	    2.311549e-005	        -89.46425
          45952	    3.465323e-005	    2.760069e-005	        -87.07159
          46080	    3.433329e-005	    2.604385e-005	        -87.31174
          46208	    3.075928e-005	     2.57571e-005	        -87.93292
          46336	    3.218739e-005	    3.622532e-005	        -86.29246
          46464	     2.11692e-005	    3.194759e-005	        -88.33042
          46592	    3.044092e-005	    3.051435e-005	        -87.31007
          46720	    2.636664e-005	    2.944533e-005	        -88.06256
          46848	    2.680086e-005	    3.319443e-005	        -87.39891
          46976	    3.202235e-005	    2.405526e-005	        -87.94772
          47104	    3.204078e-005	     2.12687e-005	        -88.30041
          47232	    2.892077e-005	    2.938293e-005	        -87.69611
          47360	    2.521064e-005	    2.557767e-005	         -88.8948
          47488	    2.385645e-005	    2.653113e-005	        -88.95161
          47616	    2.649989e-005	    2.944832e-005	        -88.04253
          47744	    2.418152e-005	    2.462899e-005	        -89.23967
          47872	    2.856573e-005	    2.805852e-005	        -87.94991
          48000	    2.747822e-005	    2.872736e-005	        -88.01257
          48128	    3.343731e-005	    2.226743e-005	        -87.92126
          48256	    1.931084e-005	    2.498234e-005	        -90.01293
          48384	    3.000515e-005	    2.982363e-005	        -87.47206
          48512	     2.20916e-005	     2.79197e-005	        -88.97035
          48640	    2.527111e-005	    1.843366e-005	         -90.0947
          48768	    2.256859e-005	    2.222574e-005	        -89.98558
          48896	    2.206421e-005	    1.966753e-005	        -90.58667
          49024	     2.57211e-005	    2.052223e-005	        -89.65477
          49152	    2.226503e-005	    2.120873e-005	        -90.24319
          49280	     2.58983e-005	    2.235013e-005	        -89.31721
          49408	    2.282186e-005	    2.515041e-005	        -89.38027
          49536	    2.125423e-005	    1.683595e-005	          -91.336
          49664	    1.982026e-005	    2.202025e-005	        -90.56637
          49792	    2.636361e-005	    2.205528e-005	        -89.27576
          49920	    2.568304e-005	    2.321879e-005	        -89.21278
          50048	    2.861016e-005	    3.061862e-005	        -87.55465
          50176	    3.150085e-005	    2.977585e-005	        -87.26095
          50304	    2.495326e-005	    2.660221e-005	        -88.76037
          50432	    2.708006e-005	    2.130247e-005	        -89.25504
          50560	    2.918093e-005	    3.492475e-005	        -86.83765
          50688	    2.351359e-005	    2.091705e-005	        -90.04184
          50816	    2.300735e-005	    2.703285e-005	         -88.9959
          50944	    4.454826e-005	    3.806061e-005	        -84.64307
          51072	    3.435268e-005	     3.33991e-005	        -86.39103
          51200	    2.746269e-005	     2.85029e-005	        -88.05038
          51328	     0.0001819025	     0.0001780672	        -71.88449
          51456	    3.445007e-005	    3.023131e-005	        -86.77628
          51584	    2.670512e-005	    1.881572e-005	        -89.71757
          51712	    2.459508e-005	    1.878527e-005	        -90.18723
          51840	    2.645997e-005	    1.755981e-005	        -89.96334
          51968	    2.054818e-005	    1.824082e-005	        -91.22079
          52096	    2.636708e-005	    3.192011e-005	         -87.6596
          52224	    2.026485e-005	    2.373874e-005	        -90.11356
          52352	    3.648285e-005	    2.975793e-005	        -86.54326
          52480	    3.277895e-005	     3.32186e-005	        -86.61955
          52608	    3.054512e-005	    4.081649e-005	        -85.85195
          52736	    6.426101e-005	     8.53969e-005	        -79.42254
          52864	    7.011064e-005	    8.927902e-005	        -78.89874
          52992	    3.547698e-005	      3.7485e-005	        -85.74508
          53120	    2.414217e-005	    2.550211e-005	        -89.08966
          53248	    2.788872e-005	    2.976705e-005	        -87.78884
          53376	     2.87312e-005	    3.387926e-005	         -87.0481
          53504	    2.905547e-005	    1.967478e-005	         -89.0963
          53632	    2.075955e-005	    2.137084e-005	        -90.51748
          53760	    2.138696e-005	    1.928639e-005	        -90.81253
          53888	    2.932123e-005	    1.418299e-005	        -89.74329
          54016	    1.742376e-005	    1.968628e-005	        -91.60435
          54144	    2.269575e-005	    2.443167e-005	        -89.53893
          54272	    2.864751e-005	    1.622722e-005	         -89.6497
          54400	    1.894212e-005	    1.564946e-005	        -92.19172
          54528	     1.94543e-005	     1.99889e-005	        -91.09006
          54656	    2.012738e-005	     1.40804e-005	        -92.19417
          54784	    1.913365e-005	    2.021623e-005	        -91.10815
          54912	    2.200504e-005	    2.310572e-005	        -89.92211
          55040	    2.610036e-005	     1.03346e-005	        -91.03455
          55168	    2.066421e-005	     1.74131e-005	        -91.36543
          55296	    1.748804e-005	     1.80888e-005	        -91.98571
          55424	    1.810077e-005	    1.869237e-005	        -91.69384
          55552	    1.948132e-005	    1.556672e-005	        -92.06318
          55680	    2.442659e-005	    2.947123e-005	          -88.341
          55808	    2.161735e-005	    1.392332e-005	        -91.79688
          55936	    2.422481e-005	    1.791488e-005	        -90.42017
          56064	    1.660205e-005	    1.741114e-005	        -92.37489
          56192	    1.664542e-005	    2.389522e-005	        -90.71577
          56320	    2.511096e-005	    2.079488e-005	        -89.73472
          56448	     1.70858e-005	    1.679776e-005	         -92.4102
          56576	    2.131849e-005	    1.458393e-005	        -91.75764
          56704	    2.109889e-005	      2.2352e-005	        -90.24672
          56832	    1.882026e-005	    1.930783e-005	        -91.38469
          56960	    1.783078e-005	    1.981536e-005	        -91.48383
          57088	    2.038874e-005	    1.605172e-005	        -91.71754
          57216	    1.561354e-005	    1.531902e-005	        -93.20159
          57344	     1.70954e-005	    1.582352e-005	        -92.65491
          57472	    1.440604e-005	    1.714157e-005	        -92.99844
          57600	    1.784438e-005	    1.437958e-005	         -92.7968
          57728	     1.72197e-005	    1.487404e-005	        -92.85876
          57856	    1.506714e-005	    1.532578e-005	        -93.35454
          57984	    1.862221e-005	    1.792898e-005	        -91.75071
          58112	    1.587433e-005	    2.056914e-005	        -91.70642
          58240	     1.71149e-005	    1.565085e-005	        -92.69324
          58368	    1.764357e-005	    1.778067e-005	        -92.02422
          58496	    1.876391e-005	    1.418485e-005	        -92.57043
          58624	     2.05211e-005	    1.946527e-005	        -90.96903
          58752	    7.537772e-005	    7.274009e-005	        -79.59678
          58880	    1.782231e-005	    2.081761e-005	        -91.24356
          59008	    1.519821e-005	    1.880742e-005	        -92.33064
          59136	     1.96445e-005	    1.809541e-005	        -91.46697
          59264	    1.883272e-005	    1.585171e-005	        -92.17564
          59392	    1.530278e-005	    1.462572e-005	        -93.48638
          59520	     1.55557e-005	    1.315753e-005	        -93.81847
          59648	     1.62557e-005	     1.36334e-005	        -93.46674
          59776	    1.518138e-005	    1.385928e-005	        -93.74118
          59904	    2.403323e-005	    2.098108e-005	        -89.92337
          60032	     1.31541e-005	    1.211999e-005	        -94.94952
          60160	    1.597494e-005	    1.349478e-005	        -93.59212
          60288	    1.534563e-005	     1.63216e-005	        -92.99397
          60416	    1.437749e-005	    1.793551e-005	        -92.77042
          60544	    1.493687e-005	    1.259886e-005	        -94.18117
          60672	    1.643609e-005	    1.528169e-005	        -92.97849
          60800	    1.503967e-005	     1.47132e-005	         -93.5392
          60928	     1.73337e-005	    1.400086e-005	        -93.04097
          61056	    1.924908e-005	    1.853831e-005	        -91.46182
          61184	    1.514582e-005	    1.728547e-005	        -92.77215
          61312	    1.308443e-005	    1.613876e-005	        -93.64856
          61440	    1.283234e-005	     1.69156e-005	         -93.4601
          61568	    1.638003e-005	    1.909073e-005	         -91.9876
          61696	    1.707283e-005	    1.202784e-005	        -93.60364
          61824	    1.162838e-005	    1.328146e-005	         -95.0638
          61952	    1.393867e-005	    1.482143e-005	         -93.8304
          62080	    1.380853e-005	    1.333716e-005	        -94.33498
          62208	    1.373244e-005	    1.531462e-005	        -93.73539
          62336	    1.859829e-005	    1.324962e-005	        -92.82788
          62464	    1.843818e-005	    1.581968e-005	        -92.28979
          62592	    1.254494e-005	    1.478873e-005	        -94.24717
          62720	    1.378379e-005	    1.345307e-005	        -94.30652
          62848	    1.925638e-005	    1.373607e-005	        -92.52209
          62976	    1.849837e-005	    2.096465e-005	        -91.06956
          63104	    1.309383e-005	    1.310133e-005	        -94.64587
          63232	    2.034621e-005	    1.522595e-005	        -91.89903
          63360	    1.755569e-005	    1.159756e-005	        -93.53885
          63488	    1.228071e-005	    1.107011e-005	         -95.6326
          63616	    1.453299e-005	     1.28216e-005	        -94.25273
          63744	    1.650459e-005	    1.549479e-005	        -92.90314
          63872	    1.650121e-005	    1.347461e-005	        -93.43082
          64000	    1.267618e-005	    1.416086e-005	        -94.42233
          64128	    1.662491e-005	    1.176416e-005	        -93.82179
          64256	    1.185715e-005	    1.516401e-005	        -94.31166
          64384	    1.485316e-005	    1.449414e-005	        -93.65829
          64512	    1.489893e-005	    1.132728e-005	        -94.55578
          64640	    1.351624e-005	    1.281364e-005	        -94.59823
          64768	    1.369321e-005	    1.213047e-005	        -94.75406
          64896	    1.548822e-005	    1.465681e-005	        -93.42268
          65024	    1.454757e-005	    1.774253e-005	         -92.7866
          65152	    1.101013e-005	    1.534529e-005	        -94.47696
          65280	    1.436856e-005	    1.372513e-005	        -94.03584
          65408	    1.161287e-005	    1.572214e-005	        -94.17886
          65536	    1.412464e-005	     1.47445e-005	        -93.79962
          65664	    1.132748e-005	    1.206659e-005	        -95.62386
          65792	    1.390313e-005	    1.110912e-005	        -94.99339
          65920	    9.958038e-006	    1.112478e-005	        -96.51845
          66048	    1.615998e-005	    1.328781e-005	        -93.58813
          66176	    1.284296e-005	    1.043171e-005	        -95.62627
          66304	    9.323878e-006	    1.139621e-005	        -96.63924
          66432	    1.394672e-005	    1.235721e-005	        -94.59406
          66560	    1.394605e-005	    1.237475e-005	        -94.58887
          66688	    1.286983e-005	    1.328052e-005	        -94.65968
          66816	    1.185668e-005	    1.473001e-005	        -94.46658
          66944	    1.335008e-005	    1.303707e-005	        -94.58184
          67072	    1.279323e-005	    1.486457e-005	        -94.14966
          67200	    1.145606e-005	     9.76448e-006	        -96.44766
          67328	    1.752963e-005	    1.272929e-005	        -93.28529
          67456	    1.302156e-005	    1.723338e-005	        -93.31101
          67584	    1.278572e-005	     1.21949e-005	        -95.05581
          67712	    1.028342e-005	    1.244745e-005	        -95.83879
          67840	    1.512681e-005	    1.480806e-005	        -93.48626
          67968	    1.553266e-005	     1.19532e-005	        -94.15508
          68096	    1.185574e-005	    1.386083e-005	        -94.77972
          68224	     1.78497e-005	    2.262601e-005	        -90.80635
          68352	    2.009969e-005	    1.608297e-005	        -91.78709
          68480	    4.702234e-005	    4.420513e-005	        -83.80365
          68608	    2.385703e-005	    2.035558e-005	        -90.07223
          68736	    1.528653e-005	    1.146918e-005	        -94.37446
          68864	    1.172553e-005	    1.158376e-005	        -95.65956
          68992	    1.363155e-005	    1.259995e-005	        -94.62713
          69120	    1.814586e-005	    1.453808e-005	        -92.67101
          69248	    1.771418e-005	     1.56011e-005	        -92.53999
          69376	    1.270317e-005	     1.40344e-005	        -94.45711
          69504	    1.973365e-005	    1.859104e-005	        -91.33687
          69632	    1.032967e-005	    1.564552e-005	        -94.54094
          69760	    1.089945e-005	    1.214817e-005	        -95.74505
          69888	    1.563886e-005	    1.264811e-005	        -93.93029
          70016	    1.194537e-005	    1.256927e-005	        -95.21897
          70144	    1.039433e-005	    1.039414e-005	        -96.65385
          70272	    1.555722e-005	    1.382589e-005	        -93.63329
          70400	    1.278579e-005	    1.434821e-005	        -94.32565
          70528	    1.190484e-005	    1.280058e-005	        -95.14875
          70656	    1.287344e-005	    1.357108e-005	        -94.56057
          70784	    1.036997e-005	    1.265909e-005	        -95.72208
          70912	    1.255299e-005	    1.297188e-005	        -94.86986
          71040	    1.455039e-005	    1.171553e-005	        -94.57215
          71168	    1.306504e-005	    1.760308e-005	        -93.18249
          71296	    1.327064e-005	    9.553643e-006	        -95.72868
          71424	    1.179369e-005	    1.011367e-005	        -96.17303
          71552	    1.171542e-005	    1.059688e-005	        -96.02851
          71680	    1.204789e-005	    1.100241e-005	        -95.74784
          71808	    1.495751e-005	    1.072541e-005	        -94.70106
          71936	    1.433882e-005	    1.219088e-005	        -94.50728
          72064	    1.333176e-005	    1.377019e-005	        -94.34915
          72192	    1.424647e-005	    1.123488e-005	        -94.82561
          72320	    1.300034e-005	    1.149894e-005	        -95.21095
          72448	    1.294345e-005	    1.370907e-005	        -94.49195
          72576	    1.418522e-005	    1.281561e-005	         -94.3716
          72704	    1.328398e-005	    1.291268e-005	        -94.64451
          72832	    1.231281e-005	    9.762734e-006	         -96.0745
          72960	    1.029629e-005	    1.717724e-005	        -93.96778
          73088	     1.41912e-005	    1.076118e-005	        -94.98676
          73216	    1.271795e-005	     7.82702e-006	        -96.51678
          73344	    8.311205e-006	    1.811198e-005	        -94.01078
          73472	    1.431667e-005	    1.211441e-005	        -94.53796
          73600	    1.175688e-005	     8.91624e-006	        -96.62095
          73728	     1.18723e-005	    1.006564e-005	        -96.15703
          73856	    1.002995e-005	    1.022009e-005	         -96.8814
          73984	    9.846867e-006	    1.125661e-005	        -96.50388
          74112	    9.440826e-006	    1.159942e-005	        -96.50381
          74240	    1.424536e-005	    1.101299e-005	        -94.89165
          74368	    1.212745e-005	    1.298079e-005	        -95.00896
          74496	    9.916493e-006	    9.984998e-006	        -97.03254
          74624	    1.151746e-005	    1.061712e-005	        -96.10169
          74752	    1.290805e-005	    1.097956e-005	        -95.41863
          74880	    1.188938e-005	    1.154978e-005	        -95.61055
          75008	    8.728487e-006	      1.0962e-005	        -97.06965
          75136	    9.772122e-006	    1.264501e-005	        -95.92795
          75264	    8.197651e-006	    1.267075e-005	        -96.42543
          75392	    1.354853e-005	    9.726124e-006	        -95.55705
          75520	    1.361031e-005	    1.118771e-005	        -95.08071
          75648	    1.297477e-005	    1.267329e-005	        -94.82861
          75776	    1.232665e-005	    1.127192e-005	        -95.54391
          75904	    9.846988e-006	    1.007258e-005	        -97.02415
          76032	    1.214574e-005	    1.221256e-005	        -95.27733
          76160	    1.103508e-005	    1.090109e-005	        -96.18692
          76288	    9.784719e-006	     1.05464e-005	        -96.84099
          76416	    1.410173e-005	    1.120478e-005	        -94.88911
          76544	    1.124041e-005	    1.092268e-005	         -96.0968
          76672	    1.373035e-005	    1.009868e-005	        -95.36845
          76800	    1.499075e-005	     1.18217e-005	        -94.38332
          76928	    1.561525e-005	    1.202633e-005	        -94.10644
          77056	    9.566927e-006	    1.145961e-005	         -96.5199
          77184	    1.316704e-005	    1.202928e-005	        -94.97471
          77312	    1.088157e-005	    1.518689e-005	        -94.57112
          77440	    1.302357e-005	    1.224399e-005	         -94.9549
          77568	    1.136902e-005	    1.134076e-005	        -95.88603
          77696	    9.870666e-006	     1.28371e-005	        -95.81332
          77824	    1.589714e-005	    2.150125e-005	         -91.4568
          77952	    1.756866e-005	    2.686899e-005	        -89.86909
          78080	    1.327583e-005	    2.351419e-005	        -91.37174
          78208	    1.507892e-005	    1.070575e-005	         -94.6599
          78336	    3.460158e-005	    3.316017e-005	        -86.38864
          78464	    1.890199e-005	    1.138197e-005	        -93.12619
          78592	    1.008714e-005	     1.34477e-005	        -95.48842
          78720	    1.073897e-005	    1.348219e-005	        -95.27105
          78848	    8.640411e-006	    1.047828e-005	        -97.34119
          78976	    1.329084e-005	    1.049127e-005	        -95.42552
          79104	    9.840379e-006	    1.333493e-005	        -95.61215
          79232	     1.22393e-005	     1.23198e-005	          -95.206
          79360	    9.456744e-006	    1.083764e-005	        -96.84272
          79488	    1.213678e-005	    9.699997e-006	        -96.17278
          79616	    1.167963e-005	    1.317997e-005	        -95.08463
          79744	    9.006649e-006	    1.451314e-005	        -95.34988
          79872	    1.241751e-005	    1.080123e-005	        -95.67253
          80000	    1.044309e-005	    1.083371e-005	        -96.45071
          80128	    1.164207e-005	    1.120079e-005	        -95.83367
          80256	    8.950638e-006	    1.766954e-005	        -94.06352
          80384	    1.109534e-005	    9.709255e-006	        -96.62788
          80512	    9.765815e-006	    1.022151e-005	        -96.99295
          80640	    1.274605e-005	    1.165729e-005	        -95.25268
          80768	    1.264568e-005	    1.293049e-005	        -94.85305
          80896	     1.43535e-005	    1.097639e-005	        -94.86111
          81024	    1.025062e-005	    1.517396e-005	        -94.74535
          81152	    9.320827e-006	    1.376914e-005	        -95.58356
          81280	    1.051227e-005	    9.467807e-006	         -96.9865
          81408	    8.758926e-006	    1.153924e-005	        -96.78043
          81536	    8.922357e-006	    1.550044e-005	        -94.95024
          81664	    9.578191e-006	    9.589472e-006	        -97.35892
          81792	     1.26051e-005	    1.171846e-005	        -95.28399
          81920	    9.427917e-006	    1.205997e-005	        -96.30175
          82048	    1.098541e-005	    1.124364e-005	         -96.0713
          82176	    1.043452e-005	    7.545821e-006	        -97.80367
          82304	    1.235277e-005	    1.016074e-005	        -95.92046
          82432	    1.277238e-005	    1.626573e-005	        -93.68853
          82560	     8.31643e-006	    1.032271e-005	        -97.55176
          82688	    1.127271e-005	    9.572328e-006	        -96.60144
          82816	    9.057148e-006	    1.130924e-005	        -96.77924
          82944	    9.375441e-006	    1.069071e-005	         -96.9424
          83072	    1.069394e-005	    1.085255e-005	        -96.34253
          83200	    1.238587e-005	    1.103717e-005	        -95.60306
          83328	    1.090063e-005	    1.090784e-005	        -96.23779
          83456	    9.159678e-006	    1.177353e-005	         -96.5264
          83584	    1.097898e-005	    1.088713e-005	        -96.21479
          83712	    9.679642e-006	    1.320518e-005	        -95.71748
          83840	    1.203704e-005	    1.025014e-005	        -96.02137
          83968	    1.022838e-005	    9.895547e-006	        -96.93486
          84096	    1.087563e-005	    1.095332e-005	        -96.22959
          84224	    1.186533e-005	    1.468751e-005	        -94.47929
          84352	     1.44299e-005	    1.130702e-005	        -94.73569
          84480	    1.247523e-005	    1.086124e-005	        -95.62888
          84608	    9.429802e-006	    1.098575e-005	        -96.78593
          84736	    6.856928e-006	     9.37408e-006	        -98.70017
          84864	     1.11883e-005	    7.989671e-006	        -97.23508
          84992	    1.161756e-005	    1.285311e-005	        -95.22633
          85120	    1.018136e-005	    1.193706e-005	        -96.08794
          85248	    1.150534e-005	    1.275312e-005	        -95.30156
          85376	    1.250793e-005	    1.164525e-005	        -95.34528
          85504	    1.827844e-005	    1.636394e-005	         -92.2049
          85632	    2.421574e-005	    1.703231e-005	        -90.57247
          85760	    1.586085e-005	    1.218877e-005	        -93.97796
          85888	    1.038252e-005	    9.751176e-006	        -96.92757
          86016	    1.073547e-005	    1.096616e-005	        -96.27996
          86144	    1.096377e-005	    1.043263e-005	        -96.40081
          86272	    9.982149e-006	    1.292912e-005	        -95.73805
          86400	    1.292347e-005	    1.073041e-005	        -95.49508
          86528	    8.306642e-006	    1.124242e-005	        -97.09093
          86656	    9.550412e-006	    1.038419e-005	        -97.01056
          86784	    8.777027e-006	    1.095906e-005	        -97.05231
          86912	    1.193092e-005	    1.216334e-005	        -95.37163
          87040	     9.00921e-006	    1.182557e-005	        -96.55589
          87168	    8.679118e-006	    1.166091e-005	        -96.75092
          87296	    1.230923e-005	    1.267846e-005	        -95.05483
          87424	    1.128239e-005	    1.090324e-005	         -96.0876
          87552	    1.009112e-005	    1.025879e-005	        -96.83875
          87680	    2.234536e-005	    2.026824e-005	        -90.40903
          87808	    8.808345e-006	    9.650144e-006	        -97.67735
          87936	    1.153701e-005	    9.883089e-006	        -96.36806
          88064	    9.863582e-006	     1.43403e-005	        -95.18651
          88192	     7.08775e-006	    1.056695e-005	        -97.90762
          88320	    1.226957e-005	    1.186679e-005	        -95.35565
          88448	    1.034747e-005	    8.189159e-006	         -97.5912
          88576	    7.766643e-006	    9.930912e-006	        -97.98756
          88704	     1.04083e-005	    1.179718e-005	        -96.06414
          88832	     1.05384e-005	    9.850321e-006	        -96.81756
          88960	    1.025057e-005	    1.074972e-005	        -96.56334
          89088	    1.131903e-005	    9.458624e-006	         -96.6237
          89216	    9.976578e-006	    1.139945e-005	        -96.39256
          89344	    9.743867e-006	    6.913377e-006	        -98.45461
          89472	     7.33171e-006	    8.556529e-006	        -98.96305
          89600	    1.023928e-005	    1.045463e-005	        -96.69298
          89728	    1.030687e-005	    9.094288e-006	        -97.23682
          89856	    9.911053e-006	    1.369048e-005	        -95.44154
          89984	    1.074429e-005	    1.413507e-005	        -95.01359
          90112	    1.120965e-005	    1.347837e-005	        -95.12405
          90240	    1.173595e-005	    1.085879e-005	        -95.92361
          90368	    1.035155e-005	    7.684002e-006	        -97.79373
          90496	    8.036565e-006	    1.437382e-005	        -95.66721
          90624	    1.032279e-005	    8.933434e-006	        -97.29633
          90752	    9.440228e-006	    9.833409e-006	        -97.30922
          90880	     8.08403e-006	    1.152921e-005	        -97.02734
          91008	    8.979319e-006	    1.158725e-005	        -96.67779
          91136	    7.447738e-006	    8.876549e-006	        -98.72047
          91264	    9.851964e-006	    1.286831e-005	        -95.80615
          91392	    9.973977e-006	    1.015176e-005	        -96.93493
          91520	    1.127426e-005	    7.602966e-006	         -97.3303
          91648	    9.776114e-006	    1.178184e-005	        -96.30071
          91776	    1.111824e-005	    1.114941e-005	        -96.05681
          91904	    1.013734e-005	    1.012661e-005	        -96.87582
          92032	    7.634117e-006	    6.379545e-006	        -100.0446
          92160	    7.772079e-006	     1.14389e-005	         -97.1839
          92288	     1.05977e-005	    9.607981e-006	        -96.89042
          92416	    9.522229e-006	    9.082533e-006	        -97.61539
          92544	    9.473243e-006	    1.005951e-005	        -97.19112
          92672	    1.142672e-005	    1.083659e-005	        -96.05545
          92800	    8.313113e-006	    1.025884e-005	        -97.58574
          92928	    9.504724e-006	    1.124686e-005	        -96.63877
          93056	    9.371364e-006	     1.15319e-005	        -96.55987
          93184	    8.486471e-006	    1.069823e-005	        -97.29385
          93312	    9.896627e-006	    7.969301e-006	        -97.91954
          93440	     9.91371e-006	    9.768669e-006	        -97.12851
          93568	    8.369824e-006	    1.295581e-005	        -96.23593
          93696	    8.291615e-006	    1.030656e-005	        -97.57021
          93824	    1.212127e-005	    9.832078e-006	        -96.13332
          93952	    9.387633e-006	    9.588503e-006	        -97.44566
          94080	    1.205358e-005	    9.299863e-006	        -96.34931
          94208	    7.773566e-006	    9.377554e-006	        -98.28663
          94336	    7.387699e-006	    1.072078e-005	        -97.70796
          94464	    8.678974e-006	    8.611131e-006	        -98.25428
          94592	    7.836881e-006	    1.153102e-005	        -97.11346
          94720	    1.077177e-005	     7.39833e-006	        -97.67598
          94848	    9.434012e-006	    9.003269e-006	        -97.69399
          94976	    9.738874e-006	    1.054938e-005	        -96.85848
          95104	    8.833158e-006	    1.181855e-005	        -96.62136
          95232	    1.044541e-005	    9.350073e-006	         -97.0657
          95360	    7.697284e-006	     8.08494e-006	        -99.04432
          95488	    1.118189e-005	    1.026001e-005	        -96.37701
          95616	    1.157384e-005	    9.042477e-006	        -96.66109
          95744	    1.098642e-005	    9.516961e-006	        -96.75154
          95872	    9.807004e-006	    8.317834e-006	         -97.8156
          96000	    1.188517e-005	    8.698101e-006	        -96.63712
          96128	    9.877434e-006	    1.022284e-005	        -96.94498
          96256	    7.382193e-006	    1.339911e-005	        -96.30723
          96384	    1.054522e-005	    9.580006e-006	        -96.92551
          96512	    9.864462e-006	    7.827862e-006	        -97.99744
          96640	     9.36471e-006	    1.069698e-005	        -96.94384
          96768	    6.343687e-006	    1.061371e-005	        -98.15612
          96896	     7.91677e-006	    1.095847e-005	        -97.38111
          97024	    8.593464e-006	    9.357634e-006	        -97.92062
          97152	    9.025583e-006	    7.579374e-006	        -98.57272
          97280	    9.499453e-006	    1.051492e-005	        -96.97229
          97408	    1.032388e-005	    1.174149e-005	        -96.11819
          97536	     8.45558e-006	    1.034952e-005	        -97.48096
          97664	    1.022135e-005	    9.126206e-006	        -97.26389
          97792	     9.07026e-006	    1.138644e-005	        -96.73827
          97920	    2.328834e-005	    2.469088e-005	        -89.38553
          98048	    1.132111e-005	    1.421227e-005	        -94.81281
          98176	    1.269533e-005	    1.500849e-005	        -94.12933
          98304	    2.201198e-005	      1.7602e-005	        -90.99984
          98432	    4.466181e-005	      3.8912e-005	        -84.54839
          98560	    4.725619e-005	     4.26242e-005	        -83.92548
          98688	    1.352237e-005	    1.641208e-005	        -93.44659
          98816	    1.526823e-005	    1.076768e-005	        -94.57098
          98944	    1.506942e-005	     1.06937e-005	        -94.66682
          99072	    1.116897e-005	    1.329415e-005	        -95.20741
          99200	    1.467915e-005	    7.230889e-006	        -95.72249
          99328	    1.523179e-005	    9.278871e-006	         -94.9743
          99456	    1.207659e-005	    7.179897e-006	        -97.04664
          99584	    9.851266e-006	    1.013577e-005	        -96.99445
          99712	    1.101036e-005	     9.82717e-006	        -96.61939
          99840	    1.307751e-005	    7.637968e-006	        -96.39483
          99968	     1.17325e-005	    8.907133e-006	        -96.63563
         100096	    7.700371e-006	    6.315372e-006	        -100.0358
         100224	    1.090786e-005	    8.769239e-006	        -97.08008
         100352	    8.652634e-006	    8.558563e-006	        -98.29395
         100480	    9.094287e-006	     9.35245e-006	        -97.69106
         100608	    9.240929e-006	    1.091183e-005	        -96.89386
         100736	    8.056497e-006	    8.767757e-006	        -98.48383
         100864	    8.812356e-006	    9.031651e-006	         -97.9798
         100992	      9.7375e-006	    1.106536e-005	        -96.63018
         101120	    9.056947e-006	    7.428506e-006	        -98.62611
         101248	    1.719318e-005	     9.32999e-006	        -94.17194
         101376	    9.896727e-006	    9.567354e-006	        -97.22438
         101504	    7.769818e-006	    7.329036e-006	        -99.42772
         101632	    9.258064e-006	    7.537309e-006	        -98.46116
         101760	     1.01151e-005	    9.085193e-006	        -97.33167
         101888	    6.981372e-006	    6.973963e-006	        -100.1155
         102016	    9.159331e-006	    7.807987e-006	        -98.39057
         102144	    1.252738e-005	    1.041154e-005	        -95.76205
         102272	    1.258726e-005	     9.23813e-006	        -96.12998
         102400	    1.115189e-005	    1.188619e-005	        -95.75697
