Measure Group: FFT
Measurement: FFT ch2
Ch1 Eng. Units: Off
Ch2 Eng. Units: Off
Ch1 EU Label: m/s2
Ch2 EU Label: m/s2
Ch1 User Label: EU
Ch2 User Label: EU
Ch1 EU/Volt:  1 EU/V
Ch2 EU/Volt:  1 EU/V
Base Freq.:  102.4 kHz 
Start Freq.: 0 Hz
Span: 102.4 kHz
FFT Lines:  800 
Window: Uniform
Force Length: 100%
Expo TC: 50%
Averaging: On
Averaging Mode: RMS
Averaging Type: Exponential
# Avgs:   10
Time Record Incr.: 100.00%
Overload Reject: On
d/dx window (%):     0.0005
dBm Ref. Imped.:         50 
Auto Offset: On
Ch1 Input Mode: A
Ch1 Grounding: Ground
Ch1 Coupling: AC
Ch2 Input Mode: A
Ch2 Grounding: Float
Ch2 Coupling: AC
Ch1 AA Filter: On
Ch2 AA Filter: On
Ch1 A-Wt Fitler: Off
Ch2 A-Wt Filter: Off
Ch1 AutoRange: Normal
Ch2 AutoRange: Normal
Playback Start: 0
Playback Length:  494 kPts/ch
Playback Mode: Circular
Playback Speed: Normal
Ch1 Input Range:  -50 dBV
Ch2 Input Range:  -32 dBV
Trig'd Source Mode: Continuous
Trigger Mode: Free Run
Trigger Source: Ch 1
Trigger Level: 0%
Trigger Slope: Rising
Delay A: 0 bins
Delay B: 0 bins
Source: 1
Source Type: 0
Sine Freq 1: 100 kHz
Sine Freq 2: 51.2 kHz
Sine Amp 1: 1000.0 mV
Src Offset: 4000.0 mV
Sine Amp 2:   0.0 mV
Noise Amp: 5000.0 mV
Noise Burst:   0 %
Noise Type: Whte
Chirp Amp: 1000.0 mV
Chirp Burst:   0 %
Chirp Source: Display B
Arb Src Amp: 100.01 %
Arb Src Buf: Arb. Buffer
Arb Src Rate: 262.1 kHz
Arb Src Start: 0
Arb Src Len:    4 kPts
Input Source: Analog
****DATA BEGINS****
            x  	         Real    	         Imag    	      Log Mag
              0	     0.0006310262	    2.379706e-006	        -63.99899
            128	    9.018563e-005	     0.0001560525	        -74.88306
            256	    5.435672e-005	    8.234023e-005	        -80.11684
            384	    2.187125e-005	     5.14813e-005	        -85.04639
            512	    2.307312e-005	    4.111124e-005	        -86.53158
            640	    1.838064e-005	    3.216019e-005	        -88.62606
            768	    2.510971e-005	    2.518136e-005	        -88.98048
            896	    2.789864e-005	    3.237493e-005	        -87.38387
           1024	    3.003891e-005	    4.341469e-005	        -85.54836
           1152	    1.552815e-005	    2.124983e-005	        -91.59468
           1280	    2.047525e-005	    2.218041e-005	        -90.40383
           1408	    2.068168e-005	    1.796602e-005	        -91.24644
           1536	    1.341284e-005	    1.253266e-005	        -94.72407
           1664	    1.677628e-005	    1.825357e-005	        -92.11382
           1792	    1.698657e-005	    1.178988e-005	        -93.69019
           1920	    1.407752e-005	    2.903951e-005	        -89.82353
           2048	    3.182769e-005	    3.227479e-005	        -86.87259
           2176	    2.286323e-005	    1.969567e-005	         -90.4065
           2304	    2.334476e-005	    2.245485e-005	        -89.79143
           2432	    1.787025e-005	    2.115442e-005	        -91.15286
           2560	    1.934328e-005	    2.106498e-005	        -90.87302
           2688	    1.259098e-005	    1.469538e-005	        -94.26563
           2816	    1.717686e-005	    2.207497e-005	        -91.06599
           2944	    2.590384e-005	    1.908015e-005	        -89.85034
           3072	    1.915608e-005	    1.755946e-005	         -91.7051
           3200	    1.350381e-005	    1.823319e-005	         -92.8836
           3328	    2.554929e-005	    2.565908e-005	        -88.82346
           3456	    3.035584e-005	    3.188876e-005	        -87.12563
           3584	    1.733849e-005	    2.312917e-005	        -90.78011
           3712	     1.97492e-005	     1.91263e-005	        -91.21567
           3840	    1.582074e-005	    1.378831e-005	        -93.56139
           3968	    1.237575e-005	    1.275697e-005	        -95.00451
           4096	    1.026135e-005	    1.522277e-005	        -94.72334
           4224	    1.536619e-005	    1.970374e-005	        -92.04567
           4352	    1.269727e-005	    1.184203e-005	        -95.20779
           4480	    1.289299e-005	    1.126957e-005	        -95.32788
           4608	    1.525215e-005	    1.363008e-005	        -93.78401
           4736	    1.154999e-005	    1.075717e-005	        -96.03593
           4864	    1.088029e-005	     1.10482e-005	        -96.18987
           4992	    1.128973e-005	    1.323345e-005	        -95.19157
           5120	    1.138373e-005	    1.224998e-005	        -95.53383
           5248	    1.314613e-005	    1.273824e-005	        -94.74847
           5376	    1.176897e-005	    9.320868e-006	        -96.47071
           5504	    1.063767e-005	    1.034301e-005	        -96.57305
           5632	    1.108257e-005	     9.30292e-006	         -96.7909
           5760	    7.827343e-006	    1.327649e-005	        -96.24277
           5888	    8.159448e-006	    1.250188e-005	        -96.51942
           6016	    9.650602e-006	    1.022036e-005	        -97.04235
           6144	    8.176721e-006	    9.003375e-006	        -98.29974
           6272	    1.137527e-005	    1.344567e-005	        -95.08382
           6400	    1.279391e-005	    1.159227e-005	        -95.25689
           6528	    1.271856e-005	    1.223337e-005	        -95.06657
           6656	    1.099498e-005	    1.089184e-005	        -96.20655
           6784	    1.235792e-005	    1.137771e-005	        -95.49488
           6912	    1.224939e-005	     1.57051e-005	         -94.0154
           7040	     8.68226e-006	    9.563046e-006	        -97.77717
           7168	    1.037281e-005	    7.485468e-006	        -97.86144
           7296	    1.233051e-005	    1.054842e-005	        -95.79532
           7424	    1.566961e-005	    1.358985e-005	        -93.66309
           7552	    1.566035e-005	    2.017118e-005	         -91.8567
           7680	     2.66375e-005	    2.057832e-005	        -89.45761
           7808	    3.152005e-005	    3.420276e-005	        -86.64875
           7936	    1.687024e-005	    1.807563e-005	        -92.13722
           8064	     3.28666e-005	    3.610348e-005	        -86.22753
           8192	    2.452823e-005	    2.367491e-005	        -89.34743
           8320	    2.317484e-005	    1.705877e-005	        -90.81931
           8448	    1.932691e-005	     1.60767e-005	         -91.9929
           8576	    1.251132e-005	    1.422078e-005	        -94.45191
           8704	    1.006216e-005	    1.234536e-005	        -95.95757
           8832	    1.627236e-005	    1.046285e-005	        -94.26825
           8960	    1.142381e-005	    1.294758e-005	        -95.25575
           9088	    1.381931e-005	    1.025757e-005	        -95.28428
           9216	    9.145019e-006	    1.144023e-005	        -96.68552
           9344	    1.014358e-005	    1.128293e-005	        -96.37901
           9472	    9.820142e-006	    1.184437e-005	        -96.25757
           9600	    1.051459e-005	    1.076556e-005	         -96.4502
           9728	    9.404082e-006	    1.112661e-005	        -96.73177
           9856	    1.322204e-005	    1.083646e-005	        -95.34244
           9984	    8.296132e-006	    9.420924e-006	          -98.025
          10112	    1.095164e-005	    9.358513e-006	         -96.8294
          10240	    8.225693e-006	    1.192107e-005	        -96.78249
          10368	    8.353804e-006	    9.468982e-006	        -97.97382
          10496	    8.291267e-006	    1.114694e-005	        -97.14444
          10624	    1.339615e-005	     9.61634e-006	        -95.65541
          10752	    1.006234e-005	    1.145791e-005	        -96.33513
          10880	    9.031203e-006	    9.022496e-006	        -97.87897
          11008	    7.714673e-006	    8.724895e-006	        -98.67612
          11136	    9.344548e-006	    9.936462e-006	        -97.30361
          11264	    9.554416e-006	    7.846163e-006	        -98.15737
          11392	    8.757317e-006	    7.886398e-006	        -98.57342
          11520	    1.130194e-005	    1.059858e-005	        -96.19673
          11648	    8.984447e-006	    7.445743e-006	        -98.65952
          11776	    1.060535e-005	    1.106575e-005	        -96.29073
          11904	    1.491876e-005	    1.413705e-005	         -93.7425
          12032	    1.359693e-005	    1.264501e-005	        -94.62466
          12160	    1.372162e-005	    9.982513e-006	        -95.40708
          12288	    1.571673e-005	     1.12539e-005	        -94.27517
          12416	     1.22992e-005	    1.334691e-005	        -94.82263
          12544	    1.105266e-005	    9.616188e-006	        -96.68304
          12672	    1.029985e-005	    1.192331e-005	        -96.05107
          12800	    1.311786e-005	    1.213273e-005	        -94.95826
          12928	    9.599112e-006	    1.412907e-005	        -95.34954
          13056	    1.159799e-005	    8.294372e-006	        -96.91841
          13184	    1.273676e-005	    1.291805e-005	        -94.82671
          13312	    1.099587e-005	    1.228134e-005	        -95.65846
          13440	    1.207532e-005	    1.024379e-005	        -96.00761
          13568	    1.485049e-005	    1.068018e-005	         -94.7547
          13696	    8.607708e-006	    1.225468e-005	        -96.49229
          13824	    8.127469e-006	    1.190394e-005	        -96.82439
          13952	    8.467806e-006	    7.336438e-006	        -99.01263
          14080	    1.687227e-005	    1.346918e-005	        -93.31528
          14208	    1.114709e-005	    1.040512e-005	        -96.33532
          14336	    1.327678e-005	    9.067966e-006	        -95.87538
          14464	    1.200123e-005	    1.113573e-005	         -95.7181
          14592	    1.069384e-005	     1.37199e-005	         -95.1914
          14720	    1.329397e-005	    1.339716e-005	        -94.48289
          14848	    1.283035e-005	    1.186173e-005	        -95.15247
          14976	    1.255025e-005	    8.931472e-006	        -96.24739
          15104	    1.360086e-005	    1.062194e-005	        -95.26062
          15232	    1.013263e-005	    1.096092e-005	        -96.52061
          15360	     1.30049e-005	    1.218662e-005	        -94.98064
          15488	    1.212931e-005	    9.729508e-006	        -96.16573
          15616	    1.210817e-005	    1.480494e-005	        -94.36763
          15744	    1.482329e-005	    9.925554e-006	        -94.97237
          15872	    1.337312e-005	    1.137939e-005	        -95.10983
          16000	    1.004288e-005	    1.380422e-005	        -95.35487
          16128	    2.036436e-005	    1.582669e-005	        -91.77054
          16256	     1.46167e-005	    1.666039e-005	        -93.08727
          16384	    1.119435e-005	    1.099196e-005	        -96.08823
          16512	    2.358645e-005	    1.997253e-005	        -90.19895
          16640	    1.703046e-005	    1.782697e-005	        -92.16212
          16768	    2.207947e-005	    1.840131e-005	        -90.82961
          16896	    3.043807e-005	    3.089013e-005	        -87.25686
          17024	    5.119538e-005	    4.833137e-005	        -83.04791
          17152	     0.0001171798	     0.0001145284	        -75.71091
          17280	    2.874732e-005	    2.655011e-005	        -88.14935
          17408	    3.055701e-005	    2.600107e-005	        -87.93232
          17536	    1.842273e-005	    2.157811e-005	        -90.94198
          17664	    1.670951e-005	    1.875517e-005	        -91.99995
          17792	    1.792928e-005	    2.401632e-005	        -90.46606
          17920	    1.242854e-005	    1.481373e-005	        -94.27227
          18048	    1.324809e-005	    1.342461e-005	        -94.48877
          18176	    1.503254e-005	     1.36987e-005	        -93.83386
          18304	    1.391782e-005	    1.593703e-005	        -93.49018
          18432	    1.500824e-005	    1.511455e-005	        -93.43234
          18560	    1.030432e-005	    1.287224e-005	        -95.65633
          18688	    1.571666e-005	     1.54507e-005	        -93.13599
          18816	    1.704371e-005	    1.509013e-005	        -92.85503
          18944	    1.701534e-005	    2.047404e-005	        -91.49533
          19072	    2.874957e-005	    2.754029e-005	        -87.99969
          19200	    5.201626e-005	    3.130775e-005	         -84.3346
          19328	    3.085122e-005	    2.542935e-005	        -87.96301
          19456	    1.978161e-005	    2.358226e-005	         -90.2345
          19584	    8.207717e-005	    7.972683e-005	         -78.8296
          19712	    1.921446e-005	    1.368114e-005	        -92.54637
          19840	    1.436891e-005	    1.250049e-005	        -94.40419
          19968	    1.399434e-005	    1.530839e-005	        -93.66341
          20096	    1.666089e-005	    1.877416e-005	        -92.00622
          20224	    1.503689e-005	    1.254908e-005	        -94.16135
          20352	    1.324316e-005	    1.228331e-005	        -94.86435
          20480	    1.345398e-005	    1.639002e-005	        -93.47133
          20608	     1.31346e-005	    1.599751e-005	        -93.68112
          20736	    1.251041e-005	    2.054082e-005	        -92.37745
          20864	    1.879389e-005	    1.447696e-005	        -92.49652
          20992	    1.551871e-005	    1.435802e-005	        -93.49709
          21120	    1.521428e-005	    1.405755e-005	        -93.67453
          21248	    1.507794e-005	    1.609677e-005	        -93.12962
          21376	    2.079793e-005	    1.750288e-005	        -91.31412
          21504	     1.54064e-005	    1.853569e-005	        -92.35877
          21632	    1.972262e-005	    1.827735e-005	        -91.40836
          21760	    1.802922e-005	    1.543648e-005	        -92.49231
          21888	    1.892389e-005	    1.639454e-005	        -92.02805
          22016	    1.515664e-005	    1.344499e-005	        -93.86696
          22144	    1.827684e-005	    1.446606e-005	        -92.64953
          22272	    2.053532e-005	    2.000086e-005	        -90.85269
          22400	    1.869544e-005	    1.837982e-005	         -91.6283
          22528	    2.030194e-005	    1.495578e-005	        -91.96649
          22656	     1.71842e-005	    2.222343e-005	        -91.02825
          22784	    1.397129e-005	    1.331049e-005	         -94.2903
          22912	    1.578817e-005	    2.213541e-005	        -91.31213
          23040	      2.1367e-005	    2.548955e-005	         -89.5614
          23168	    2.503899e-005	     2.05953e-005	        -89.78349
          23296	    2.327594e-005	     1.81663e-005	        -90.59592
          23424	    1.550574e-005	    2.188063e-005	        -91.43156
          23552	    1.628022e-005	    1.660579e-005	        -92.66965
          23680	    1.981595e-005	    1.729715e-005	        -91.59979
          23808	     2.22099e-005	    2.045138e-005	        -90.40225
          23936	    2.111144e-005	    1.701072e-005	        -91.33678
          24064	    2.166282e-005	    1.722772e-005	         -91.1573
          24192	    1.764054e-005	    2.354535e-005	        -90.62697
          24320	    2.437851e-005	    2.325198e-005	        -89.45017
          24448	    2.432995e-005	    1.902775e-005	        -90.20451
          24576	    2.381358e-005	    2.329071e-005	        -89.54855
          24704	    2.308501e-005	    2.189617e-005	        -89.94665
          24832	    2.140639e-005	     2.02383e-005	        -90.61569
          24960	    2.367663e-005	    2.414441e-005	         -89.4175
          25088	    1.891068e-005	    1.773891e-005	        -91.72448
          25216	    2.299931e-005	    2.807922e-005	        -88.80279
          25344	    2.176302e-005	    2.715116e-005	        -89.16923
          25472	    2.502838e-005	    2.752118e-005	        -88.58916
          25600	    1.756202e-005	    2.471965e-005	        -90.36455
          25728	    2.177725e-005	    3.234324e-005	        -88.18061
          25856	    2.045354e-005	    2.276954e-005	        -90.28353
          25984	    1.964741e-005	    2.536726e-005	        -89.87366
          26112	    2.590211e-005	      2.3013e-005	        -89.20631
          26240	    2.480985e-005	    2.714558e-005	        -88.68891
          26368	    1.743095e-005	    3.064222e-005	        -89.05605
          26496	    2.335486e-005	    2.000581e-005	        -90.24255
          26624	    2.859543e-005	    2.095963e-005	        -89.00663
          26752	     2.68517e-005	    2.073182e-005	        -89.38992
          26880	    2.575407e-005	    2.096498e-005	        -89.57502
          27008	    2.902263e-005	    3.077323e-005	        -87.47316
          27136	    2.776761e-005	    3.461913e-005	        -87.05639
          27264	    3.381055e-005	    2.896924e-005	        -87.02815
          27392	    2.574031e-005	    2.626066e-005	        -88.68964
          27520	     2.55852e-005	    2.168253e-005	         -89.4895
          27648	    3.848249e-005	    2.463678e-005	        -86.80296
          27776	    3.218099e-005	    4.792321e-005	        -84.77262
          27904	    3.752856e-005	    3.840999e-005	        -85.40047
          28032	     2.59026e-005	    2.952442e-005	        -88.11736
          28160	    3.416269e-005	    2.954283e-005	        -86.90398
          28288	    3.473226e-005	    2.504916e-005	         -87.3665
          28416	     2.36688e-005	    2.631933e-005	        -89.02077
          28544	    2.419922e-005	    2.073335e-005	        -89.93331
          28672	    3.682332e-005	    3.169741e-005	        -86.26962
          28800	     2.98761e-005	    3.075169e-005	        -87.35596
          28928	    3.170617e-005	    3.367141e-005	         -86.6978
          29056	    3.059717e-005	     3.05198e-005	        -87.28706
          29184	    3.112543e-005	     2.55008e-005	        -87.90731
          29312	    2.639154e-005	     3.21297e-005	        -87.62247
          29440	    4.205329e-005	    2.876939e-005	        -85.85669
          29568	    2.507121e-005	    3.066714e-005	        -88.04366
          29696	    3.001876e-005	    2.765212e-005	        -87.78386
          29824	    2.690393e-005	     3.17961e-005	        -87.60748
          29952	    2.221165e-005	    3.361255e-005	        -87.89639
          30080	    3.988994e-005	    3.306501e-005	        -85.71136
          30208	    2.519865e-005	    2.923743e-005	        -88.26872
          30336	    3.909484e-005	    2.759923e-005	        -86.40141
          30464	    3.785372e-005	     3.25995e-005	         -86.0282
          30592	    3.205809e-005	    3.487898e-005	        -86.48926
          30720	    3.636548e-005	    2.762103e-005	        -86.80817
          30848	    2.788633e-005	    4.305656e-005	        -85.79794
          30976	    3.755095e-005	    3.346438e-005	         -85.9689
          31104	    3.855163e-005	    3.663122e-005	        -85.48509
          31232	    3.302194e-005	    3.995768e-005	        -85.70722
          31360	    4.043918e-005	    4.006998e-005	         -84.8933
          31488	    3.233863e-005	    3.395951e-005	        -86.57767
          31616	    3.990086e-005	    3.505644e-005	        -85.49592
          31744	    3.767708e-005	     3.59743e-005	        -85.66436
          31872	    3.841972e-005	    3.686191e-005	        -85.47466
          32000	    3.391891e-005	    4.047942e-005	        -85.54539
          32128	    2.532598e-005	    3.374413e-005	        -87.49563
          32256	    4.318627e-005	    3.561407e-005	        -85.03982
          32384	    3.610995e-005	    4.340512e-005	         -84.9649
          32512	    3.067102e-005	    2.733608e-005	        -87.72634
          32640	    4.651007e-005	    3.721637e-005	        -84.49986
          32768	    3.387391e-005	    3.452804e-005	        -86.30853
          32896	    5.002666e-005	    4.187628e-005	        -83.70969
          33024	    4.347674e-005	    3.822331e-005	        -84.74793
          33152	    4.047736e-005	    3.826403e-005	        -85.08281
          33280	    4.115804e-005	    3.535738e-005	        -85.31043
          33408	    4.681391e-005	    3.757052e-005	        -84.43325
          33536	    4.517987e-005	    5.460292e-005	        -82.99063
          33664	     3.56645e-005	    4.283233e-005	        -85.07719
          33792	    3.494515e-005	    5.407632e-005	        -83.82433
          33920	    2.938042e-005	    5.135963e-005	        -84.55805
          34048	    4.533355e-005	    4.782863e-005	        -83.62239
          34176	    6.529943e-005	    7.375659e-005	        -80.13047
          34304	    6.103234e-005	    7.518789e-005	        -80.27882
          34432	    4.461093e-005	    4.738393e-005	        -83.73109
          34560	    4.573027e-005	    5.227821e-005	        -83.16569
          34688	    3.830019e-005	     6.50326e-005	        -82.44419
          34816	    5.040453e-005	    5.041824e-005	        -82.93913
          34944	    6.483133e-005	    4.209835e-005	        -82.23635
          35072	    4.264397e-005	    3.858782e-005	        -84.80496
          35200	     3.75663e-005	    4.747143e-005	        -84.35954
          35328	    3.789862e-005	    5.170227e-005	        -83.86218
          35456	    4.027739e-005	    3.646369e-005	        -85.29903
          35584	    5.295879e-005	    4.520389e-005	        -83.14435
          35712	    4.836951e-005	    4.557212e-005	        -83.54929
          35840	    5.282673e-005	    5.100897e-005	        -82.68204
          35968	    4.090596e-005	     5.21232e-005	        -83.57523
          36096	    4.303154e-005	      4.0664e-005	        -84.55278
          36224	    5.098096e-005	    4.122822e-005	         -83.6665
          36352	    3.931401e-005	    3.191418e-005	        -85.91064
          36480	    4.680468e-005	    4.049751e-005	        -84.16719
          36608	    4.257885e-005	    4.096157e-005	        -84.57074
          36736	     3.63143e-005	    3.486155e-005	        -85.96184
          36864	    4.046262e-005	    3.299468e-005	        -85.64494
          36992	    3.621239e-005	     4.98829e-005	        -84.20258
          37120	    4.149023e-005	    4.117417e-005	        -84.66386
          37248	    4.500946e-005	    3.919416e-005	        -84.48302
          37376	    2.930237e-005	    3.869597e-005	        -86.27824
          37504	    4.515936e-005	    3.284929e-005	        -85.06062
          37632	    3.663574e-005	    3.296034e-005	        -86.14651
          37760	     4.73849e-005	    2.970019e-005	        -85.04813
          37888	    3.998306e-005	    4.921547e-005	        -83.95687
          38016	    3.882881e-005	    4.032776e-005	          -85.039
          38144	    3.468119e-005	    4.229265e-005	        -85.24118
          38272	     4.46243e-005	    3.886796e-005	        -84.55678
          38400	    7.497759e-005	    5.767855e-005	        -80.48252
          38528	    4.692713e-005	    3.365621e-005	        -84.76918
          38656	     3.21443e-005	    4.494694e-005	        -85.15205
          38784	    3.433991e-005	    3.212397e-005	        -86.55376
          38912	     2.98476e-005	    3.533693e-005	        -86.69672
          39040	    3.685779e-005	    3.978892e-005	        -85.31408
          39168	    4.355186e-005	    4.715444e-005	        -83.85071
          39296	    2.609469e-005	    3.213123e-005	        -87.66154
          39424	    3.845865e-005	    2.972904e-005	        -86.26558
          39552	    4.109676e-005	    3.558442e-005	        -85.29414
          39680	    3.132036e-005	     3.02531e-005	        -87.22112
          39808	     4.53397e-005	    4.851793e-005	        -83.55593
          39936	    2.649179e-005	    3.846548e-005	        -86.61263
          40064	    4.742276e-005	    3.939203e-005	        -84.20142
          40192	    3.728229e-005	     3.90261e-005	        -85.35659
          40320	    3.094217e-005	    3.031084e-005	        -87.26729
          40448	    3.531047e-005	    3.962189e-005	        -85.50256
          40576	    3.757187e-005	    2.438672e-005	        -86.97591
          40704	     3.16936e-005	    2.618977e-005	        -87.72014
          40832	     3.24974e-005	     3.09221e-005	        -86.96317
          40960	    2.856274e-005	    3.383869e-005	        -87.07548
          41088	    3.001782e-005	    3.046696e-005	        -87.37714
          41216	    2.883683e-005	    3.043271e-005	        -87.55052
          41344	    3.936719e-005	    2.409217e-005	        -86.71577
          41472	    3.061556e-005	    2.311465e-005	        -88.32211
          41600	    3.763435e-005	     2.85377e-005	         -86.5155
          41728	    2.455539e-005	    3.645066e-005	        -87.14079
          41856	    3.174199e-005	    3.062846e-005	        -87.10934
          41984	    3.663338e-005	    2.648425e-005	        -86.89642
          42112	    3.411009e-005	    3.613162e-005	        -86.07481
          42240	    2.089043e-005	    3.330352e-005	        -88.10921
          42368	    2.851992e-005	    3.467661e-005	        -86.95541
          42496	     3.36351e-005	    2.270345e-005	        -87.83368
          42624	    2.877694e-005	    2.829294e-005	        -87.88185
          42752	    3.662844e-005	    3.242006e-005	        -86.21111
          42880	    2.006423e-005	    2.995929e-005	        -88.86012
          43008	    3.351761e-005	    2.813196e-005	        -87.17868
          43136	    2.862298e-005	    2.288956e-005	        -88.71857
          43264	    3.581082e-005	    2.863598e-005	        -86.77277
          43392	    2.652216e-005	     2.15634e-005	        -89.32407
          43520	    3.519549e-005	    3.079197e-005	        -86.60178
          43648	    1.954363e-005	    3.261153e-005	        -88.39993
          43776	    2.867786e-005	    2.078353e-005	        -89.01572
          43904	    2.562481e-005	    3.594567e-005	         -87.1025
          44032	    1.920826e-005	    2.016382e-005	        -91.10397
          44160	    3.239396e-005	    2.445965e-005	        -87.83137
          44288	    2.767312e-005	    2.126891e-005	        -89.14293
          44416	    2.037513e-005	    3.289497e-005	        -88.24713
          44544	    2.382865e-005	    2.582024e-005	        -89.08513
          44672	    2.449984e-005	    2.381838e-005	        -89.32722
          44800	    2.598856e-005	    2.963023e-005	        -88.08729
          44928	    2.339532e-005	    1.915729e-005	        -90.38891
          45056	    2.710014e-005	    2.701036e-005	        -88.34466
          45184	    1.668966e-005	    2.702196e-005	        -89.96225
          45312	    2.503101e-005	    2.555933e-005	        -88.92847
          45440	    2.548231e-005	    2.589979e-005	        -88.79378
          45568	    2.335117e-005	     2.18521e-005	        -89.90213
          45696	    2.620169e-005	    2.413733e-005	         -88.9649
          45824	    2.310686e-005	      2.0078e-005	        -90.28236
          45952	    2.329837e-005	    2.052374e-005	        -90.15906
          46080	    2.106521e-005	    2.212983e-005	        -90.29899
          46208	    2.384776e-005	    2.116501e-005	        -89.92818
          46336	    2.043616e-005	    2.517189e-005	         -89.7829
          46464	    2.663203e-005	    2.785627e-005	        -88.28204
          46592	    1.911158e-005	    2.567122e-005	        -89.89588
          46720	    2.088611e-005	    2.062478e-005	        -90.64689
          46848	    2.331638e-005	    1.623968e-005	        -90.92921
          46976	    2.061398e-005	    2.329324e-005	        -90.14344
          47104	    1.806375e-005	    1.935371e-005	        -91.54366
          47232	    1.730446e-005	    2.553438e-005	        -90.21614
          47360	    1.429936e-005	     1.62941e-005	         -93.2793
          47488	    2.517401e-005	    1.654988e-005	        -90.42091
          47616	    2.352309e-005	    2.364147e-005	        -89.53796
          47744	    2.451807e-005	    2.640788e-005	        -88.86554
          47872	    1.807417e-005	    2.292021e-005	        -90.69554
          48000	    1.858985e-005	    1.925069e-005	        -91.44983
          48128	    1.918762e-005	    2.174004e-005	        -90.75311
          48256	    1.875911e-005	    1.582869e-005	        -92.20078
          48384	    1.883744e-005	    2.066983e-005	        -91.06743
          48512	    2.333263e-005	    2.570621e-005	        -89.18933
          48640	    1.747031e-005	    1.921962e-005	         -91.7095
          48768	    2.027454e-005	    1.901666e-005	        -91.11994
          48896	    1.713702e-005	    2.228392e-005	        -91.02235
          49024	    1.553225e-005	    1.815789e-005	        -92.43394
          49152	    1.853014e-005	    2.018432e-005	        -91.24491
          49280	    1.874128e-005	    1.910328e-005	        -91.44984
          49408	    2.145738e-005	    1.750665e-005	         -91.1526
          49536	    1.841298e-005	    1.636572e-005	        -92.16901
          49664	    1.616356e-005	    1.927754e-005	        -91.98676
          49792	    1.717194e-005	    1.517426e-005	         -92.7973
          49920	    1.833246e-005	    1.610907e-005	        -92.25059
          50048	    2.838861e-005	    1.696662e-005	         -89.6107
          50176	    1.660889e-005	    1.931742e-005	        -91.87743
          50304	    2.027532e-005	    1.860602e-005	        -91.20748
          50432	     2.16312e-005	    1.477592e-005	        -91.63526
          50560	    1.797986e-005	     1.53535e-005	        -92.52584
          50688	    1.930556e-005	    2.121417e-005	        -90.84734
          50816	    2.042241e-005	    1.812035e-005	        -91.27598
          50944	    1.771273e-005	      2.0536e-005	        -91.33436
          51072	    2.028804e-005	    1.451898e-005	        -92.05927
          51200	    1.652139e-005	    1.935906e-005	        -91.88606
          51328	    2.536914e-005	    2.281332e-005	        -89.34032
          51456	    1.550941e-005	    1.971119e-005	        -92.01299
          51584	    1.923176e-005	    1.517838e-005	        -92.21672
          51712	    2.392455e-005	     1.94029e-005	          -90.228
          51840	    1.370846e-005	    1.325875e-005	        -94.39237
          51968	     1.78046e-005	    1.601832e-005	        -92.41398
          52096	    1.916965e-005	    1.436808e-005	        -92.41151
          52224	    1.750101e-005	    1.373028e-005	        -93.05565
          52352	    1.945323e-005	    1.658097e-005	         -91.8485
          52480	    1.593909e-005	    2.261267e-005	        -91.16119
          52608	    1.695896e-005	    1.825754e-005	        -92.06947
          52736	    2.602234e-005	    2.819173e-005	        -88.32111
          52864	    2.259325e-005	    2.297235e-005	        -89.83726
          52992	    2.453179e-005	    1.805454e-005	        -90.32557
          53120	    1.618012e-005	    1.761368e-005	        -92.42575
          53248	    1.554577e-005	    1.734968e-005	        -92.65454
          53376	    2.059954e-005	    1.647282e-005	        -91.57581
          53504	    2.301386e-005	    1.567952e-005	        -91.10426
          53632	    1.998489e-005	    1.022678e-005	        -92.97585
          53760	     1.26098e-005	    1.425021e-005	        -94.41201
          53888	     2.05025e-005	    1.728422e-005	        -91.43213
          54016	     1.20217e-005	     1.08951e-005	        -95.79674
          54144	     1.43673e-005	    1.169129e-005	        -94.64572
          54272	    1.312982e-005	    1.372233e-005	         -94.4286
          54400	     1.56784e-005	    1.686744e-005	        -92.75459
          54528	    1.538488e-005	    1.481559e-005	        -93.40849
          54656	     1.43819e-005	    1.221949e-005	        -94.48361
          54784	    1.660839e-005	    1.792722e-005	        -92.23863
          54912	    1.285564e-005	    1.124458e-005	        -95.35052
          55040	    1.442425e-005	    1.912126e-005	        -92.41329
          55168	    1.312502e-005	    1.689106e-005	        -93.39539
          55296	    1.482857e-005	     1.67943e-005	        -92.99352
          55424	    1.660772e-005	    1.203925e-005	        -93.75966
          55552	    1.662171e-005	    9.915452e-006	        -94.26435
          55680	      2.0428e-005	    2.180276e-005	        -90.49313
          55808	    1.321558e-005	    1.217039e-005	        -94.91107
          55936	    1.697433e-005	    1.395796e-005	        -93.16096
          56064	    1.408517e-005	    1.242352e-005	        -94.52551
          56192	    1.548575e-005	    1.141081e-005	        -94.31781
          56320	    1.138612e-005	    1.091133e-005	        -96.04323
          56448	    1.839112e-005	    1.216685e-005	        -93.13126
          56576	    1.532309e-005	    1.246193e-005	        -94.08827
          56704	    1.171002e-005	     1.21975e-005	        -95.43781
          56832	    1.096043e-005	     1.11019e-005	        -96.13709
          56960	    1.551289e-005	     1.62563e-005	         -92.9678
          57088	    1.352088e-005	    9.382637e-006	        -95.67274
          57216	    1.138507e-005	    1.237581e-005	         -95.4855
          57344	     1.72777e-005	    1.431017e-005	        -92.98174
          57472	    1.277915e-005	     1.10121e-005	        -95.45806
          57600	    1.328137e-005	    1.468863e-005	        -94.06547
          57728	    1.082949e-005	      9.7329e-006	         -96.7365
          57856	    1.232303e-005	    1.286038e-005	        -94.98604
          57984	    1.130835e-005	    8.643113e-006	        -96.93398
          58112	    1.311303e-005	    1.457786e-005	        -94.15142
          58240	    1.167088e-005	    1.129745e-005	        -95.78656
          58368	    9.799368e-006	    1.111088e-005	        -96.58607
          58496	    8.521119e-006	    1.292048e-005	        -96.20607
          58624	    1.045763e-005	    1.360257e-005	        -95.31074
          58752	    1.686538e-005	    2.086526e-005	        -91.42788
          58880	    1.027087e-005	    1.180763e-005	        -96.10992
          59008	    9.196727e-006	    1.489128e-005	        -95.13811
          59136	    1.426581e-005	    1.133734e-005	        -94.78798
          59264	    8.286485e-006	    1.403047e-005	        -95.75903
          59392	    1.130559e-005	    1.090382e-005	        -96.07814
          59520	    1.124274e-005	    1.264983e-005	        -95.43001
          59648	    1.214781e-005	    1.230397e-005	        -95.24391
          59776	    1.545377e-005	    1.209236e-005	        -94.14489
          59904	    9.458047e-006	    9.554037e-006	         -97.4296
          60032	    1.045777e-005	    1.362858e-005	        -95.30026
          60160	    1.519621e-005	    1.253082e-005	        -94.11228
          60288	    1.003187e-005	    1.021148e-005	        -96.88431
          60416	    1.001888e-005	    9.617971e-006	        -97.14706
          60544	    1.249376e-005	    1.280861e-005	         -94.9464
          60672	     1.03666e-005	     8.16141e-006	        -97.59264
          60800	    1.317123e-005	     7.72107e-006	        -96.32465
          60928	     9.53748e-006	    1.307589e-005	        -95.81795
          61056	    1.221254e-005	    1.070997e-005	        -95.78644
          61184	    9.983454e-006	    6.652913e-006	        -98.41846
          61312	    1.168701e-005	    9.556028e-006	        -96.42249
          61440	    1.332154e-005	    9.267553e-006	        -95.79465
          61568	     1.13444e-005	    1.124945e-005	        -95.93042
          61696	    1.203796e-005	    1.127297e-005	        -95.65443
          61824	    1.172103e-005	    1.215016e-005	        -95.45142
          61952	    1.047426e-005	    9.358861e-006	        -97.04876
          62080	    1.174594e-005	    1.221837e-005	        -95.41731
          62208	    1.217171e-005	     9.10481e-006	        -96.36298
          62336	     1.17532e-005	    8.312486e-006	        -96.83537
          62464	    8.330828e-006	    1.302131e-005	         -96.2168
          62592	    8.763875e-006	    1.369377e-005	        -95.77862
          62720	    1.246447e-005	      1.0112e-005	        -95.89027
          62848	    8.351504e-006	    1.019613e-005	        -97.60178
          62976	    1.027149e-005	    9.719795e-006	        -96.99018
          63104	    8.752849e-006	    1.001702e-005	        -97.52142
          63232	    7.731131e-006	    9.538046e-006	        -98.21758
          63360	    1.197541e-005	    8.927091e-006	        -96.51494
          63488	    9.529828e-006	    1.140482e-005	        -96.55829
          63616	    9.345686e-006	    8.590548e-006	        -97.92799
          63744	    9.604541e-006	    9.005265e-006	        -97.61096
          63872	    1.076999e-005	     7.91803e-006	        -97.47905
          64000	     1.07935e-005	    1.111556e-005	        -96.19689
          64128	    9.375127e-006	    1.113291e-005	        -96.74003
          64256	    8.985315e-006	    1.180734e-005	        -96.57283
          64384	    1.033109e-005	    1.005291e-005	         -96.8237
          64512	    1.056889e-005	    1.055407e-005	         -96.5152
          64640	    1.303635e-005	    9.871073e-006	        -95.72864
          64768	    1.086456e-005	    9.623803e-006	        -96.76426
          64896	    1.268643e-005	    1.146539e-005	        -95.34022
          65024	    1.157119e-005	    1.226643e-005	        -95.46135
          65152	    7.860477e-006	    8.904713e-006	        -98.50532
          65280	    9.412408e-006	    6.041784e-006	        -99.02754
          65408	    6.767211e-006	    1.106604e-005	        -97.74039
          65536	     8.80985e-006	    9.924638e-006	        -97.54211
          65664	    7.532331e-006	    9.950269e-006	        -98.07589
          65792	    1.026718e-005	    1.032087e-005	        -96.73797
          65920	    1.096223e-005	    9.441619e-006	        -96.79201
          66048	    9.239207e-006	    1.027394e-005	        -97.19156
          66176	    1.033562e-005	    9.936046e-006	        -96.87083
          66304	    1.340391e-005	    9.098651e-006	        -95.80953
          66432	    9.438185e-006	    1.054573e-005	        -96.98337
          66560	    9.880295e-006	    9.384689e-006	        -97.31205
          66688	    8.501808e-006	    1.211735e-005	        -96.59336
          66816	    9.326568e-006	    8.649136e-006	        -97.91042
          66944	    9.751297e-006	    1.117483e-005	        -96.57648
          67072	    6.363048e-006	    1.062357e-005	         -98.1432
          67200	    1.059236e-005	    1.041731e-005	        -96.56161
          67328	    7.971176e-006	    9.826117e-006	         -97.9563
          67456	     8.80994e-006	    8.273458e-006	        -98.35453
          67584	    8.056657e-006	    9.665797e-006	        -98.00417
          67712	     1.02099e-005	    9.030901e-006	        -97.30956
          67840	    9.002524e-006	    8.897151e-006	        -97.95325
          67968	    8.974544e-006	    9.294075e-006	        -97.77486
          68096	    1.008003e-005	    9.850984e-006	        -97.01913
          68224	    8.274193e-006	    1.025579e-005	        -97.60342
          68352	    7.002365e-006	    7.216958e-006	        -99.95174
          68480	     9.42825e-006	    9.021652e-006	        -97.68831
          68608	    8.893737e-006	    8.743934e-006	        -98.08116
          68736	     8.88292e-006	    9.316585e-006	        -97.80664
          68864	    8.316995e-006	    1.250363e-005	        -96.46828
          68992	    1.296797e-005	    7.351917e-006	        -96.53219
          69120	    9.795198e-006	    1.068828e-005	        -96.77398
          69248	    8.890869e-006	    7.842631e-006	        -98.52155
          69376	    7.655612e-006	    8.374485e-006	        -98.90285
          69504	    9.931438e-006	    7.038898e-006	        -98.29211
          69632	    9.031376e-006	    7.585045e-006	        -98.56677
          69760	    8.102357e-006	    8.359435e-006	         -98.6797
          69888	    6.178214e-006	    8.104039e-006	        -99.83611
          70016	    7.190471e-006	    9.538034e-006	        -98.45646
          70144	    9.587974e-006	    8.778406e-006	         -97.7214
          70272	    9.046382e-006	    8.602023e-006	        -98.07344
          70400	    1.006691e-005	    9.517671e-006	         -97.1686
          70528	    9.461821e-006	    8.514431e-006	        -97.90427
          70656	    8.117981e-006	    5.878268e-006	        -99.98026
          70784	    9.424563e-006	    7.747534e-006	        -98.27261
          70912	    9.282638e-006	    8.574966e-006	        -97.96702
          71040	    7.909956e-006	    9.959299e-006	        -97.91142
          71168	    1.136049e-005	    6.983927e-006	         -97.4998
          71296	    9.234212e-006	    6.821816e-006	        -98.80059
          71424	    9.118672e-006	    6.768352e-006	        -98.89542
          71552	     7.63844e-006	    8.709259e-006	        -98.72257
          71680	    9.371211e-006	    6.359476e-006	          -98.919
          71808	    9.294266e-006	    9.079219e-006	        -97.72588
          71936	    7.246011e-006	    5.376442e-006	        -100.8932
          72064	     6.82257e-006	     6.77834e-006	        -100.3389
          72192	    6.956979e-006	     7.79214e-006	        -99.62108
          72320	    8.587706e-006	    1.312916e-005	        -96.08846
          72448	     9.44064e-006	    9.450798e-006	          -97.485
          72576	    6.717457e-006	    7.387222e-006	        -100.0133
          72704	    7.536551e-006	    7.889406e-006	        -99.24299
          72832	    9.616278e-006	    9.516751e-006	        -97.37451
          72960	    8.182372e-006	    7.125924e-006	        -99.29113
          73088	    9.625246e-006	    8.850099e-006	        -97.67081
          73216	     7.85039e-006	    7.863837e-006	        -99.08443
          73344	    6.779374e-006	    9.869577e-006	        -98.43546
          73472	    6.560751e-006	    8.559711e-006	        -99.34375
          73600	    6.761784e-006	    9.219894e-006	        -98.83631
          73728	    8.601355e-006	    8.405464e-006	        -98.39726
          73856	     1.03402e-005	    1.050129e-005	        -96.63146
          73984	    8.681283e-006	    7.484036e-006	        -98.81486
          74112	    7.250456e-006	    9.382632e-006	        -98.52006
          74240	    8.845557e-006	    6.780655e-006	        -99.05804
          74368	    8.456342e-006	    7.154153e-006	        -99.11185
          74496	    7.570906e-006	    7.584947e-006	        -99.39869
          74624	    8.967273e-006	    6.256192e-006	        -99.22443
          74752	    9.645993e-006	    8.504557e-006	        -97.81536
          74880	    7.235004e-006	    7.891789e-006	        -99.40718
          75008	    9.061138e-006	    9.052644e-006	        -97.85011
          75136	    8.070216e-006	    5.350154e-006	        -100.2802
          75264	    6.462514e-006	    7.445062e-006	        -100.1236
          75392	    8.844696e-006	    7.774352e-006	         -98.5802
          75520	    8.072428e-006	    8.310784e-006	         -98.7214
          75648	    7.592321e-006	    7.079397e-006	        -99.67538
          75776	    1.061212e-005	    8.867772e-006	        -97.18388
          75904	    6.337428e-006	    7.612052e-006	         -100.083
          76032	    8.300809e-006	    9.025391e-006	        -98.22865
          76160	    9.609695e-006	    7.991851e-006	        -98.06274
          76288	    7.166499e-006	    6.975657e-006	         -99.9992
          76416	    6.342965e-006	    6.853379e-006	        -100.5947
          76544	    8.326751e-006	    1.008971e-005	        -97.66656
          76672	    7.209665e-006	    1.017503e-005	        -98.08241
          76800	    1.208889e-005	    1.018341e-005	        -96.02332
          76928	    1.896185e-005	     1.50526e-005	        -92.32005
          77056	    9.620507e-006	    1.115449e-005	        -96.63587
          77184	     8.54647e-006	    8.837786e-006	        -98.20596
          77312	    6.497191e-006	    7.535657e-006	        -100.0437
          77440	    5.261785e-006	    5.522369e-006	         -102.352
          77568	    6.319001e-006	    8.191007e-006	        -99.70525
          77696	    7.828914e-006	    6.482305e-006	        -99.85848
          77824	    1.052498e-005	     7.62836e-006	        -97.72198
          77952	    1.147395e-005	    1.045198e-005	        -96.18172
          78080	    1.024023e-005	    8.347987e-006	        -97.58077
          78208	    6.848276e-006	    7.763786e-006	        -99.69905
          78336	    9.976564e-006	    9.543081e-006	        -97.19872
          78464	     8.04795e-006	    5.371679e-006	        -100.2861
          78592	    6.502314e-006	    6.445344e-006	        -100.7664
          78720	    6.472615e-006	    8.007661e-006	        -99.74623
          78848	    7.607351e-006	    7.814773e-006	        -99.24663
          78976	    9.113732e-006	    6.533948e-006	        -99.00483
          79104	    8.467215e-006	    9.608591e-006	        -97.85107
          79232	    7.781943e-006	    6.655791e-006	        -99.79398
          79360	    6.972813e-006	    5.144502e-006	        -101.2444
          79488	      6.3926e-006	    7.777227e-006	        -99.94173
          79616	    6.131501e-006	    6.361272e-006	        -101.0757
          79744	    6.386929e-006	    5.353739e-006	        -101.5829
          79872	    7.623834e-006	    7.628511e-006	        -99.34357
          80000	    7.374973e-006	    7.044251e-006	        -99.82918
          80128	    6.319893e-006	    8.783025e-006	        -99.31508
          80256	    6.561006e-006	    6.537631e-006	        -100.6658
          80384	    5.993494e-006	    7.152356e-006	        -100.6009
          80512	    6.070053e-006	    5.557847e-006	        -101.6919
          80640	    8.755261e-006	    5.463575e-006	        -99.72629
          80768	    5.678368e-006	    6.614247e-006	        -101.1923
          80896	     7.89157e-006	    5.655085e-006	        -100.2569
          81024	    5.790384e-006	    6.950675e-006	        -100.8703
          81152	    7.344681e-006	    7.440497e-006	        -99.61359
          81280	    7.799503e-006	     6.69598e-006	        -99.76055
          81408	    7.635022e-006	    7.569683e-006	        -99.37066
          81536	    7.637323e-006	    7.849693e-006	        -99.21013
          81664	    5.844593e-006	    6.318575e-006	        -101.3028
          81792	    5.589809e-006	    7.243083e-006	        -100.7723
          81920	    7.492471e-006	    7.033922e-006	        -99.76282
          82048	     8.58343e-006	    6.620009e-006	        -99.29963
          82176	    7.004941e-006	    6.137563e-006	        -100.6179
          82304	    6.648507e-006	    6.568917e-006	        -100.5872
          82432	      4.5339e-006	     9.54925e-006	        -99.51774
          82560	    6.765848e-006	    6.914609e-006	        -100.2878
          82688	    6.482082e-006	    7.535814e-006	        -100.0522
          82816	    5.843295e-006	    7.576503e-006	        -100.3835
          82944	    7.223023e-006	    9.027255e-006	        -98.73988
          83072	    6.087556e-006	    7.535366e-006	        -100.2761
          83200	    6.176517e-006	    6.718767e-006	         -100.794
          83328	    6.493322e-006	     8.42908e-006	        -99.46105
          83456	    7.307842e-006	    4.520014e-006	        -101.3174
          83584	    6.830621e-006	    8.168232e-006	        -99.45473
          83712	    9.962043e-006	    6.957899e-006	        -98.30753
          83840	    6.649565e-006	    7.859839e-006	         -99.7472
          83968	    7.727767e-006	     4.44481e-006	        -100.9977
          84096	    6.731012e-006	    7.807489e-006	        -99.73616
          84224	     8.57653e-006	    6.452109e-006	        -99.38598
          84352	    7.680333e-006	     7.09981e-006	        -99.61003
          84480	    6.022262e-006	    6.898967e-006	        -100.7643
          84608	    8.232322e-006	    6.014635e-006	        -99.83188
          84736	    8.019254e-006	    7.524827e-006	        -99.17461
          84864	    7.574847e-006	    6.138555e-006	          -100.22
          84992	    6.529127e-006	    9.250753e-006	        -98.92092
          85120	    6.049263e-006	    6.721324e-006	        -100.8741
          85248	    6.153496e-006	    7.508024e-006	        -100.2578
          85376	    7.258202e-006	    7.697307e-006	        -99.51054
          85504	    8.578149e-006	    5.820699e-006	        -99.68732
          85632	     8.07155e-006	    6.859331e-006	        -99.50006
          85760	     5.33175e-006	    5.915154e-006	         -101.978
          85888	    6.911718e-006	    8.697361e-006	        -99.08629
          86016	    5.828245e-006	    8.917475e-006	        -99.45043
          86144	    7.285587e-006	    6.074921e-006	        -100.4583
          86272	    6.508049e-006	    6.447814e-006	        -100.7609
          86400	     5.65405e-006	    7.549583e-006	        -100.5078
          86528	    5.327551e-006	    5.614713e-006	        -102.2252
          86656	    5.248031e-006	    5.864079e-006	         -102.081
          86784	    7.555934e-006	     4.90923e-006	        -100.9048
          86912	    6.588985e-006	    6.915073e-006	        -100.3985
          87040	    6.149793e-006	    5.285831e-006	        -101.8204
          87168	    6.887891e-006	    1.003972e-005	        -98.29037
          87296	    5.887556e-006	    6.089516e-006	        -101.4421
          87424	    7.748188e-006	    6.805557e-006	        -99.73262
          87552	    6.133893e-006	     6.04038e-006	        -101.3012
          87680	    1.068942e-005	    9.874019e-006	        -96.74156
          87808	    6.027582e-006	    6.699868e-006	        -100.9034
          87936	    5.573741e-006	    9.796795e-006	        -98.96046
          88064	    5.386031e-006	    5.089698e-006	        -102.6031
          88192	    5.855859e-006	    8.113408e-006	        -99.99486
          88320	    5.294397e-006	    7.798883e-006	        -100.5133
          88448	    6.700306e-006	     6.15642e-006	        -100.8199
          88576	    6.347102e-006	    7.379049e-006	        -100.2348
          88704	    5.948205e-006	    5.684969e-006	        -101.6941
          88832	    6.691223e-006	    4.671144e-006	        -101.7658
          88960	    6.962441e-006	    4.755449e-006	        -101.4819
          89088	    6.200622e-006	    5.520454e-006	        -101.6163
          89216	    6.219104e-006	    5.844309e-006	        -101.3767
          89344	    5.860252e-006	    6.814999e-006	        -100.9266
          89472	    5.772835e-006	    7.182493e-006	        -100.7102
          89600	    7.529094e-006	    5.483979e-006	        -100.6167
          89728	    6.004941e-006	    6.109906e-006	        -101.3436
          89856	    6.087592e-006	    7.839365e-006	         -100.065
          89984	    7.768109e-006	    5.578925e-006	        -100.3873
          90112	    5.218105e-006	    5.890786e-006	         -102.081
          90240	    6.637464e-006	    5.222238e-006	        -101.4674
          90368	    5.527495e-006	    5.648598e-006	         -102.044
          90496	    5.598158e-006	    5.697945e-006	        -101.9514
          90624	    6.503994e-006	     4.94037e-006	        -101.7581
          90752	    4.200211e-006	    6.129183e-006	        -102.5799
          90880	    5.747528e-006	     5.66279e-006	        -101.8641
          91008	    8.155683e-006	    5.720611e-006	        -100.0331
          91136	    5.443188e-006	    5.272883e-006	        -102.4085
          91264	       6.172e-006	    6.157337e-006	        -101.1915
          91392	    6.703734e-006	    8.834541e-006	        -99.10133
          91520	    6.790901e-006	    8.201536e-006	        -99.45457
          91648	    6.899329e-006	    8.185937e-006	        -99.40776
          91776	    5.504821e-006	    6.311585e-006	        -101.5404
          91904	    5.071365e-006	    5.654019e-006	        -102.3892
          92032	    7.528335e-006	    6.378097e-006	        -100.1164
          92160	    4.091649e-006	    4.491503e-006	        -104.3279
          92288	    5.849952e-006	    5.252754e-006	        -102.0892
          92416	    6.835802e-006	    6.454701e-006	        -100.5359
          92544	    7.252593e-006	    6.928624e-006	        -99.97376
          92672	    5.490747e-006	    4.884658e-006	        -102.6754
          92800	    5.241211e-006	    5.902513e-006	        -102.0544
          92928	    6.603918e-006	    6.883399e-006	        -100.4099
          93056	    5.249367e-006	    5.361393e-006	        -102.4949
          93184	    6.544856e-006	    7.218729e-006	        -100.2253
          93312	     6.49104e-006	    6.190653e-006	        -100.9443
          93440	    4.411757e-006	    5.648367e-006	        -102.8931
          93568	    6.311765e-006	    6.116502e-006	         -101.121
          93696	    6.423342e-006	     5.99423e-006	        -101.1244
          93824	    5.659277e-006	    6.726787e-006	        -101.1195
          93952	    6.940395e-006	    5.241428e-006	        -101.2124
          94080	    5.124819e-006	    6.204517e-006	        -101.8869
          94208	     6.42261e-006	    5.721959e-006	        -101.3082
          94336	    6.539768e-006	    5.935113e-006	        -101.0794
          94464	    4.972081e-006	    4.859649e-006	        -103.1571
          94592	    5.617668e-006	    6.660571e-006	        -101.1964
          94720	    5.957234e-006	    5.384832e-006	        -101.9054
          94848	    4.739026e-006	    4.701265e-006	        -103.5105
          94976	    4.131206e-006	    3.322967e-006	        -105.5116
          95104	    6.564929e-006	     5.96972e-006	        -101.0383
          95232	    7.349849e-006	     5.84811e-006	        -100.5443
          95360	    5.449702e-006	    5.499347e-006	        -102.2227
          95488	    6.376101e-006	     7.83386e-006	        -99.91298
          95616	    6.298877e-006	    6.040436e-006	        -101.1826
          95744	    4.679811e-006	    7.258406e-006	        -101.2735
          95872	     4.63793e-006	    5.781092e-006	        -102.6018
          96000	    6.860762e-006	    5.561477e-006	         -101.079
          96128	     5.72538e-006	    5.998967e-006	        -101.6262
          96256	    7.459455e-006	    5.644217e-006	        -100.5799
          96384	    3.959682e-006	    5.958575e-006	        -102.9087
          96512	    5.044822e-006	    5.623764e-006	        -102.4354
          96640	    5.060788e-006	    9.561222e-006	        -99.31709
          96768	    4.632705e-006	    6.796566e-006	         -101.697
          96896	    6.443591e-006	    6.326911e-006	        -100.8858
          97024	    5.772504e-006	    8.423308e-006	        -99.81824
          97152	    4.992327e-006	    5.591435e-006	        -102.5036
          97280	    4.467577e-006	    6.157895e-006	        -102.3748
          97408	    6.911626e-006	     5.48416e-006	        -101.0876
          97536	    4.089516e-006	    5.208394e-006	        -103.5802
          97664	    5.403398e-006	    5.193089e-006	        -102.5053
          97792	    6.015274e-006	    4.512902e-006	        -102.4757
          97920	    6.122458e-006	    6.693472e-006	        -100.8467
          98048	    5.627761e-006	    6.199747e-006	        -101.5423
          98176	    7.295577e-006	    6.055175e-006	        -100.4629
          98304	    4.471083e-006	    6.257352e-006	        -102.2808
          98432	    4.810521e-006	    7.156329e-006	        -101.2869
          98560	    4.052769e-006	    4.349135e-006	        -104.5173
          98688	    4.846928e-006	    5.661939e-006	        -102.5531
          98816	    5.485027e-006	    4.158055e-006	        -103.2445
          98944	    7.006362e-006	    7.013913e-006	        -100.0752
          99072	    4.700605e-006	    4.526281e-006	        -103.7076
          99200	    3.933203e-006	    5.934373e-006	         -102.951
          99328	    7.924703e-006	    5.243362e-006	        -100.4434
          99456	    5.086635e-006	    4.568354e-006	        -103.3028
          99584	     6.08499e-006	     6.34402e-006	        -101.1197
          99712	    4.825833e-006	    5.643462e-006	        -102.5855
          99840	    6.146417e-006	    7.076449e-006	        -100.5624
          99968	    6.296678e-006	    5.247379e-006	        -101.7274
         100096	    5.250996e-006	    6.314021e-006	        -101.7108
         100224	    6.106473e-006	    5.886052e-006	        -101.4306
         100352	    5.111946e-006	    4.698137e-006	        -103.1691
         100480	    6.420939e-006	    5.028292e-006	         -101.771
         100608	    3.888569e-006	    5.375753e-006	        -103.5635
         100736	    5.720026e-006	    5.664797e-006	        -101.8837
         100864	    5.202146e-006	    4.866039e-006	        -102.9464
         100992	    6.270209e-006	    7.372878e-006	        -100.2838
         101120	    4.842068e-006	     5.44384e-006	        -102.7506
         101248	    6.900782e-006	    4.508417e-006	        -101.6783
         101376	     5.93778e-006	    4.153287e-006	        -102.7978
         101504	    5.602046e-006	    5.803307e-006	        -101.8668
         101632	    7.638399e-006	    4.942487e-006	        -100.8211
         101760	    5.148318e-006	    5.209878e-006	        -102.7045
         101888	    4.311327e-006	    3.840216e-006	         -104.771
         102016	    5.836345e-006	    6.092326e-006	        -101.4765
         102144	    6.097483e-006	    5.906582e-006	        -101.4226
         102272	    5.375177e-006	    5.276866e-006	        -102.4613
         102400	    5.261337e-006	    7.036206e-006	        -101.1244
